#  E (eV)   dos(E)     Int dos(E)
-20.000  0.3043E+00  0.3043E-02
-19.990  0.3019E+00  0.6061E-02
-19.980  0.3003E+00  0.9064E-02
-19.970  0.2997E+00  0.1206E-01
-19.960  0.3004E+00  0.1507E-01
-19.950  0.3024E+00  0.1809E-01
-19.940  0.3054E+00  0.2114E-01
-19.930  0.3090E+00  0.2423E-01
-19.920  0.3130E+00  0.2736E-01
-19.910  0.3168E+00  0.3053E-01
-19.900  0.3198E+00  0.3373E-01
-19.890  0.3216E+00  0.3695E-01
-19.880  0.3221E+00  0.4017E-01
-19.870  0.3210E+00  0.4338E-01
-19.860  0.3184E+00  0.4656E-01
-19.850  0.3146E+00  0.4971E-01
-19.840  0.3099E+00  0.5280E-01
-19.830  0.3050E+00  0.5585E-01
-19.820  0.3003E+00  0.5886E-01
-19.810  0.2965E+00  0.6182E-01
-19.800  0.2939E+00  0.6476E-01
-19.790  0.2929E+00  0.6769E-01
-19.780  0.2937E+00  0.7063E-01
-19.770  0.2963E+00  0.7359E-01
-19.760  0.3004E+00  0.7660E-01
-19.750  0.3056E+00  0.7965E-01
-19.740  0.3115E+00  0.8277E-01
-19.730  0.3175E+00  0.8594E-01
-19.720  0.3230E+00  0.8917E-01
-19.710  0.3274E+00  0.9245E-01
-19.700  0.3302E+00  0.9575E-01
-19.690  0.3312E+00  0.9906E-01
-19.680  0.3301E+00  0.1024E+00
-19.670  0.3270E+00  0.1056E+00
-19.660  0.3221E+00  0.1089E+00
-19.650  0.3159E+00  0.1120E+00
-19.640  0.3089E+00  0.1151E+00
-19.630  0.3018E+00  0.1181E+00
-19.620  0.2952E+00  0.1211E+00
-19.610  0.2898E+00  0.1240E+00
-19.600  0.2861E+00  0.1268E+00
-19.590  0.2846E+00  0.1297E+00
-19.580  0.2853E+00  0.1325E+00
-19.570  0.2884E+00  0.1354E+00
-19.560  0.2934E+00  0.1383E+00
-19.550  0.3001E+00  0.1413E+00
-19.540  0.3078E+00  0.1444E+00
-19.530  0.3159E+00  0.1476E+00
-19.520  0.3236E+00  0.1508E+00
-19.510  0.3304E+00  0.1541E+00
-19.500  0.3358E+00  0.1575E+00
-19.490  0.3392E+00  0.1609E+00
-19.480  0.3404E+00  0.1643E+00
-19.470  0.3394E+00  0.1677E+00
-19.460  0.3361E+00  0.1710E+00
-19.450  0.3310E+00  0.1743E+00
-19.440  0.3242E+00  0.1776E+00
-19.430  0.3162E+00  0.1807E+00
-19.420  0.3077E+00  0.1838E+00
-19.410  0.2992E+00  0.1868E+00
-19.400  0.2913E+00  0.1897E+00
-19.390  0.2845E+00  0.1926E+00
-19.380  0.2796E+00  0.1954E+00
-19.370  0.2767E+00  0.1981E+00
-19.360  0.2764E+00  0.2009E+00
-19.350  0.2787E+00  0.2037E+00
-19.340  0.2835E+00  0.2065E+00
-19.330  0.2907E+00  0.2094E+00
-19.320  0.2996E+00  0.2124E+00
-19.310  0.3096E+00  0.2155E+00
-19.300  0.3200E+00  0.2187E+00
-19.290  0.3300E+00  0.2220E+00
-19.280  0.3388E+00  0.2254E+00
-19.270  0.3456E+00  0.2289E+00
-19.260  0.3500E+00  0.2324E+00
-19.250  0.3516E+00  0.2359E+00
-19.240  0.3505E+00  0.2394E+00
-19.230  0.3467E+00  0.2429E+00
-19.220  0.3406E+00  0.2463E+00
-19.210  0.3327E+00  0.2496E+00
-19.200  0.3236E+00  0.2528E+00
-19.190  0.3139E+00  0.2560E+00
-19.180  0.3042E+00  0.2590E+00
-19.170  0.2951E+00  0.2620E+00
-19.160  0.2869E+00  0.2648E+00
-19.150  0.2802E+00  0.2676E+00
-19.140  0.2752E+00  0.2704E+00
-19.130  0.2722E+00  0.2731E+00
-19.120  0.2714E+00  0.2758E+00
-19.110  0.2728E+00  0.2785E+00
-19.100  0.2764E+00  0.2813E+00
-19.090  0.2822E+00  0.2841E+00
-19.080  0.2899E+00  0.2870E+00
-19.070  0.2993E+00  0.2900E+00
-19.060  0.3099E+00  0.2931E+00
-19.050  0.3211E+00  0.2963E+00
-19.040  0.3322E+00  0.2997E+00
-19.030  0.3426E+00  0.3031E+00
-19.020  0.3514E+00  0.3066E+00
-19.010  0.3580E+00  0.3102E+00
-19.000  0.3619E+00  0.3138E+00
-18.990  0.3628E+00  0.3174E+00
-18.980  0.3606E+00  0.3210E+00
-18.970  0.3554E+00  0.3246E+00
-18.960  0.3475E+00  0.3281E+00
-18.950  0.3374E+00  0.3314E+00
-18.940  0.3260E+00  0.3347E+00
-18.930  0.3138E+00  0.3378E+00
-18.920  0.3017E+00  0.3408E+00
-18.910  0.2904E+00  0.3437E+00
-18.900  0.2805E+00  0.3466E+00
-18.890  0.2725E+00  0.3493E+00
-18.880  0.2669E+00  0.3519E+00
-18.870  0.2639E+00  0.3546E+00
-18.860  0.2634E+00  0.3572E+00
-18.850  0.2655E+00  0.3599E+00
-18.840  0.2700E+00  0.3626E+00
-18.830  0.2766E+00  0.3653E+00
-18.820  0.2850E+00  0.3682E+00
-18.810  0.2947E+00  0.3711E+00
-18.800  0.3052E+00  0.3742E+00
-18.790  0.3161E+00  0.3773E+00
-18.780  0.3268E+00  0.3806E+00
-18.770  0.3370E+00  0.3840E+00
-18.760  0.3463E+00  0.3875E+00
-18.750  0.3541E+00  0.3910E+00
-18.740  0.3602E+00  0.3946E+00
-18.730  0.3644E+00  0.3982E+00
-18.720  0.3663E+00  0.4019E+00
-18.710  0.3660E+00  0.4056E+00
-18.700  0.3633E+00  0.4092E+00
-18.690  0.3583E+00  0.4128E+00
-18.680  0.3512E+00  0.4163E+00
-18.670  0.3421E+00  0.4197E+00
-18.660  0.3315E+00  0.4230E+00
-18.650  0.3197E+00  0.4262E+00
-18.640  0.3073E+00  0.4293E+00
-18.630  0.2950E+00  0.4322E+00
-18.620  0.2832E+00  0.4351E+00
-18.610  0.2726E+00  0.4378E+00
-18.600  0.2638E+00  0.4404E+00
-18.590  0.2574E+00  0.4430E+00
-18.580  0.2537E+00  0.4456E+00
-18.570  0.2530E+00  0.4481E+00
-18.560  0.2555E+00  0.4506E+00
-18.550  0.2611E+00  0.4532E+00
-18.540  0.2696E+00  0.4559E+00
-18.530  0.2807E+00  0.4587E+00
-18.520  0.2936E+00  0.4617E+00
-18.510  0.3077E+00  0.4648E+00
-18.500  0.3222E+00  0.4680E+00
-18.490  0.3362E+00  0.4713E+00
-18.480  0.3490E+00  0.4748E+00
-18.470  0.3597E+00  0.4784E+00
-18.460  0.3679E+00  0.4821E+00
-18.450  0.3732E+00  0.4858E+00
-18.440  0.3755E+00  0.4896E+00
-18.430  0.3751E+00  0.4933E+00
-18.420  0.3721E+00  0.4971E+00
-18.410  0.3669E+00  0.5007E+00
-18.400  0.3602E+00  0.5043E+00
-18.390  0.3523E+00  0.5079E+00
-18.380  0.3437E+00  0.5113E+00
-18.370  0.3347E+00  0.5146E+00
-18.360  0.3255E+00  0.5179E+00
-18.350  0.3163E+00  0.5211E+00
-18.340  0.3071E+00  0.5241E+00
-18.330  0.2981E+00  0.5271E+00
-18.320  0.2893E+00  0.5300E+00
-18.310  0.2808E+00  0.5328E+00
-18.300  0.2729E+00  0.5355E+00
-18.290  0.2659E+00  0.5382E+00
-18.280  0.2602E+00  0.5408E+00
-18.270  0.2561E+00  0.5434E+00
-18.260  0.2541E+00  0.5459E+00
-18.250  0.2547E+00  0.5485E+00
-18.240  0.2580E+00  0.5510E+00
-18.230  0.2642E+00  0.5537E+00
-18.220  0.2732E+00  0.5564E+00
-18.210  0.2850E+00  0.5593E+00
-18.200  0.2990E+00  0.5623E+00
-18.190  0.3145E+00  0.5654E+00
-18.180  0.3309E+00  0.5687E+00
-18.170  0.3472E+00  0.5722E+00
-18.160  0.3623E+00  0.5758E+00
-18.150  0.3755E+00  0.5796E+00
-18.140  0.3857E+00  0.5834E+00
-18.130  0.3925E+00  0.5873E+00
-18.120  0.3954E+00  0.5913E+00
-18.110  0.3943E+00  0.5952E+00
-18.100  0.3894E+00  0.5991E+00
-18.090  0.3811E+00  0.6029E+00
-18.080  0.3701E+00  0.6066E+00
-18.070  0.3572E+00  0.6102E+00
-18.060  0.3434E+00  0.6136E+00
-18.050  0.3295E+00  0.6169E+00
-18.040  0.3161E+00  0.6201E+00
-18.030  0.3040E+00  0.6231E+00
-18.020  0.2935E+00  0.6261E+00
-18.010  0.2847E+00  0.6289E+00
-18.000  0.2776E+00  0.6317E+00
-17.990  0.2722E+00  0.6344E+00
-17.980  0.2682E+00  0.6371E+00
-17.970  0.2654E+00  0.6398E+00
-17.960  0.2637E+00  0.6424E+00
-17.950  0.2629E+00  0.6450E+00
-17.940  0.2631E+00  0.6477E+00
-17.930  0.2643E+00  0.6503E+00
-17.920  0.2668E+00  0.6530E+00
-17.910  0.2708E+00  0.6557E+00
-17.900  0.2763E+00  0.6584E+00
-17.890  0.2836E+00  0.6613E+00
-17.880  0.2926E+00  0.6642E+00
-17.870  0.3031E+00  0.6672E+00
-17.860  0.3150E+00  0.6704E+00
-17.850  0.3277E+00  0.6737E+00
-17.840  0.3409E+00  0.6771E+00
-17.830  0.3539E+00  0.6806E+00
-17.820  0.3661E+00  0.6843E+00
-17.810  0.3771E+00  0.6880E+00
-17.800  0.3861E+00  0.6919E+00
-17.790  0.3929E+00  0.6958E+00
-17.780  0.3969E+00  0.6998E+00
-17.770  0.3980E+00  0.7038E+00
-17.760  0.3960E+00  0.7077E+00
-17.750  0.3909E+00  0.7116E+00
-17.740  0.3828E+00  0.7155E+00
-17.730  0.3721E+00  0.7192E+00
-17.720  0.3592E+00  0.7228E+00
-17.710  0.3447E+00  0.7262E+00
-17.700  0.3291E+00  0.7295E+00
-17.690  0.3133E+00  0.7327E+00
-17.680  0.2979E+00  0.7356E+00
-17.670  0.2837E+00  0.7385E+00
-17.660  0.2712E+00  0.7412E+00
-17.650  0.2609E+00  0.7438E+00
-17.640  0.2531E+00  0.7463E+00
-17.630  0.2481E+00  0.7488E+00
-17.620  0.2457E+00  0.7513E+00
-17.610  0.2459E+00  0.7537E+00
-17.600  0.2486E+00  0.7562E+00
-17.590  0.2533E+00  0.7587E+00
-17.580  0.2599E+00  0.7613E+00
-17.570  0.2682E+00  0.7640E+00
-17.560  0.2777E+00  0.7668E+00
-17.550  0.2884E+00  0.7697E+00
-17.540  0.3000E+00  0.7727E+00
-17.530  0.3122E+00  0.7758E+00
-17.520  0.3246E+00  0.7791E+00
-17.510  0.3370E+00  0.7824E+00
-17.500  0.3489E+00  0.7859E+00
-17.490  0.3599E+00  0.7895E+00
-17.480  0.3695E+00  0.7932E+00
-17.470  0.3774E+00  0.7970E+00
-17.460  0.3833E+00  0.8008E+00
-17.450  0.3871E+00  0.8047E+00
-17.440  0.3888E+00  0.8086E+00
-17.430  0.3886E+00  0.8125E+00
-17.420  0.3867E+00  0.8163E+00
-17.410  0.3833E+00  0.8202E+00
-17.400  0.3788E+00  0.8239E+00
-17.390  0.3735E+00  0.8277E+00
-17.380  0.3676E+00  0.8314E+00
-17.370  0.3610E+00  0.8350E+00
-17.360  0.3538E+00  0.8385E+00
-17.350  0.3460E+00  0.8420E+00
-17.340  0.3373E+00  0.8453E+00
-17.330  0.3276E+00  0.8486E+00
-17.320  0.3170E+00  0.8518E+00
-17.310  0.3056E+00  0.8548E+00
-17.300  0.2935E+00  0.8578E+00
-17.290  0.2812E+00  0.8606E+00
-17.280  0.2692E+00  0.8633E+00
-17.270  0.2581E+00  0.8659E+00
-17.260  0.2487E+00  0.8683E+00
-17.250  0.2414E+00  0.8708E+00
-17.240  0.2370E+00  0.8731E+00
-17.230  0.2359E+00  0.8755E+00
-17.220  0.2381E+00  0.8779E+00
-17.210  0.2439E+00  0.8803E+00
-17.200  0.2531E+00  0.8828E+00
-17.190  0.2653E+00  0.8855E+00
-17.180  0.2801E+00  0.8883E+00
-17.170  0.2968E+00  0.8913E+00
-17.160  0.3148E+00  0.8944E+00
-17.150  0.3332E+00  0.8977E+00
-17.140  0.3514E+00  0.9013E+00
-17.130  0.3684E+00  0.9049E+00
-17.120  0.3836E+00  0.9088E+00
-17.110  0.3963E+00  0.9127E+00
-17.100  0.4061E+00  0.9168E+00
-17.090  0.4125E+00  0.9209E+00
-17.080  0.4154E+00  0.9251E+00
-17.070  0.4148E+00  0.9292E+00
-17.060  0.4107E+00  0.9333E+00
-17.050  0.4038E+00  0.9374E+00
-17.040  0.3944E+00  0.9413E+00
-17.030  0.3832E+00  0.9452E+00
-17.020  0.3710E+00  0.9489E+00
-17.010  0.3586E+00  0.9524E+00
-17.000  0.3465E+00  0.9559E+00
-16.990  0.3355E+00  0.9593E+00
-16.980  0.3259E+00  0.9625E+00
-16.970  0.3179E+00  0.9657E+00
-16.960  0.3115E+00  0.9688E+00
-16.950  0.3066E+00  0.9719E+00
-16.940  0.3027E+00  0.9749E+00
-16.930  0.2995E+00  0.9779E+00
-16.920  0.2963E+00  0.9809E+00
-16.910  0.2928E+00  0.9838E+00
-16.900  0.2886E+00  0.9867E+00
-16.890  0.2835E+00  0.9895E+00
-16.880  0.2776E+00  0.9923E+00
-16.870  0.2711E+00  0.9950E+00
-16.860  0.2646E+00  0.9977E+00
-16.850  0.2588E+00  0.1000E+01
-16.840  0.2544E+00  0.1003E+01
-16.830  0.2522E+00  0.1005E+01
-16.820  0.2530E+00  0.1008E+01
-16.810  0.2571E+00  0.1010E+01
-16.800  0.2649E+00  0.1013E+01
-16.790  0.2764E+00  0.1016E+01
-16.780  0.2911E+00  0.1019E+01
-16.770  0.3086E+00  0.1022E+01
-16.760  0.3279E+00  0.1025E+01
-16.750  0.3482E+00  0.1029E+01
-16.740  0.3682E+00  0.1032E+01
-16.730  0.3871E+00  0.1036E+01
-16.720  0.4037E+00  0.1040E+01
-16.710  0.4175E+00  0.1044E+01
-16.700  0.4277E+00  0.1049E+01
-16.690  0.4340E+00  0.1053E+01
-16.680  0.4363E+00  0.1057E+01
-16.670  0.4347E+00  0.1062E+01
-16.660  0.4295E+00  0.1066E+01
-16.650  0.4211E+00  0.1070E+01
-16.640  0.4099E+00  0.1074E+01
-16.630  0.3966E+00  0.1078E+01
-16.620  0.3817E+00  0.1082E+01
-16.610  0.3660E+00  0.1086E+01
-16.600  0.3499E+00  0.1089E+01
-16.590  0.3341E+00  0.1093E+01
-16.580  0.3191E+00  0.1096E+01
-16.570  0.3055E+00  0.1099E+01
-16.560  0.2937E+00  0.1102E+01
-16.550  0.2839E+00  0.1105E+01
-16.540  0.2764E+00  0.1107E+01
-16.530  0.2713E+00  0.1110E+01
-16.520  0.2686E+00  0.1113E+01
-16.510  0.2678E+00  0.1115E+01
-16.500  0.2688E+00  0.1118E+01
-16.490  0.2710E+00  0.1121E+01
-16.480  0.2739E+00  0.1124E+01
-16.470  0.2771E+00  0.1126E+01
-16.460  0.2801E+00  0.1129E+01
-16.450  0.2828E+00  0.1132E+01
-16.440  0.2851E+00  0.1135E+01
-16.430  0.2873E+00  0.1138E+01
-16.420  0.2897E+00  0.1141E+01
-16.410  0.2927E+00  0.1144E+01
-16.400  0.2970E+00  0.1146E+01
-16.390  0.3029E+00  0.1150E+01
-16.380  0.3109E+00  0.1153E+01
-16.370  0.3210E+00  0.1156E+01
-16.360  0.3332E+00  0.1159E+01
-16.350  0.3471E+00  0.1163E+01
-16.340  0.3621E+00  0.1166E+01
-16.330  0.3774E+00  0.1170E+01
-16.320  0.3923E+00  0.1174E+01
-16.310  0.4058E+00  0.1178E+01
-16.300  0.4173E+00  0.1182E+01
-16.290  0.4262E+00  0.1186E+01
-16.280  0.4321E+00  0.1191E+01
-16.270  0.4349E+00  0.1195E+01
-16.260  0.4345E+00  0.1199E+01
-16.250  0.4312E+00  0.1204E+01
-16.240  0.4253E+00  0.1208E+01
-16.230  0.4172E+00  0.1212E+01
-16.220  0.4073E+00  0.1216E+01
-16.210  0.3959E+00  0.1220E+01
-16.200  0.3835E+00  0.1224E+01
-16.190  0.3704E+00  0.1228E+01
-16.180  0.3568E+00  0.1231E+01
-16.170  0.3429E+00  0.1235E+01
-16.160  0.3290E+00  0.1238E+01
-16.150  0.3154E+00  0.1241E+01
-16.140  0.3023E+00  0.1244E+01
-16.130  0.2900E+00  0.1247E+01
-16.120  0.2789E+00  0.1250E+01
-16.110  0.2694E+00  0.1253E+01
-16.100  0.2619E+00  0.1255E+01
-16.090  0.2566E+00  0.1258E+01
-16.080  0.2539E+00  0.1260E+01
-16.070  0.2539E+00  0.1263E+01
-16.060  0.2566E+00  0.1265E+01
-16.050  0.2619E+00  0.1268E+01
-16.040  0.2694E+00  0.1271E+01
-16.030  0.2788E+00  0.1274E+01
-16.020  0.2895E+00  0.1276E+01
-16.010  0.3012E+00  0.1279E+01
-16.000  0.3134E+00  0.1283E+01
-15.990  0.3256E+00  0.1286E+01
-15.980  0.3378E+00  0.1289E+01
-15.970  0.3496E+00  0.1293E+01
-15.960  0.3610E+00  0.1296E+01
-15.950  0.3721E+00  0.1300E+01
-15.940  0.3828E+00  0.1304E+01
-15.930  0.3930E+00  0.1308E+01
-15.920  0.4028E+00  0.1312E+01
-15.910  0.4118E+00  0.1316E+01
-15.900  0.4200E+00  0.1320E+01
-15.890  0.4271E+00  0.1324E+01
-15.880  0.4327E+00  0.1329E+01
-15.870  0.4367E+00  0.1333E+01
-15.860  0.4389E+00  0.1338E+01
-15.850  0.4391E+00  0.1342E+01
-15.840  0.4375E+00  0.1346E+01
-15.830  0.4340E+00  0.1351E+01
-15.820  0.4289E+00  0.1355E+01
-15.810  0.4223E+00  0.1359E+01
-15.800  0.4146E+00  0.1363E+01
-15.790  0.4060E+00  0.1367E+01
-15.780  0.3966E+00  0.1371E+01
-15.770  0.3868E+00  0.1375E+01
-15.760  0.3766E+00  0.1379E+01
-15.750  0.3662E+00  0.1383E+01
-15.740  0.3557E+00  0.1386E+01
-15.730  0.3452E+00  0.1390E+01
-15.720  0.3348E+00  0.1393E+01
-15.710  0.3247E+00  0.1396E+01
-15.700  0.3152E+00  0.1399E+01
-15.690  0.3063E+00  0.1402E+01
-15.680  0.2986E+00  0.1405E+01
-15.670  0.2922E+00  0.1408E+01
-15.660  0.2876E+00  0.1411E+01
-15.650  0.2850E+00  0.1414E+01
-15.640  0.2848E+00  0.1417E+01
-15.630  0.2871E+00  0.1420E+01
-15.620  0.2920E+00  0.1423E+01
-15.610  0.2996E+00  0.1426E+01
-15.600  0.3095E+00  0.1429E+01
-15.590  0.3217E+00  0.1432E+01
-15.580  0.3358E+00  0.1435E+01
-15.570  0.3514E+00  0.1439E+01
-15.560  0.3682E+00  0.1443E+01
-15.550  0.3858E+00  0.1446E+01
-15.540  0.4039E+00  0.1450E+01
-15.530  0.4222E+00  0.1455E+01
-15.520  0.4405E+00  0.1459E+01
-15.510  0.4585E+00  0.1464E+01
-15.500  0.4760E+00  0.1468E+01
-15.490  0.4927E+00  0.1473E+01
-15.480  0.5082E+00  0.1478E+01
-15.470  0.5222E+00  0.1484E+01
-15.460  0.5344E+00  0.1489E+01
-15.450  0.5442E+00  0.1494E+01
-15.440  0.5515E+00  0.1500E+01
-15.430  0.5560E+00  0.1506E+01
-15.420  0.5575E+00  0.1511E+01
-15.410  0.5559E+00  0.1517E+01
-15.400  0.5514E+00  0.1522E+01
-15.390  0.5441E+00  0.1528E+01
-15.380  0.5343E+00  0.1533E+01
-15.370  0.5222E+00  0.1538E+01
-15.360  0.5082E+00  0.1543E+01
-15.350  0.4926E+00  0.1548E+01
-15.340  0.4759E+00  0.1553E+01
-15.330  0.4585E+00  0.1558E+01
-15.320  0.4406E+00  0.1562E+01
-15.310  0.4227E+00  0.1566E+01
-15.300  0.4052E+00  0.1570E+01
-15.290  0.3882E+00  0.1574E+01
-15.280  0.3720E+00  0.1578E+01
-15.270  0.3568E+00  0.1581E+01
-15.260  0.3425E+00  0.1585E+01
-15.250  0.3291E+00  0.1588E+01
-15.240  0.3164E+00  0.1591E+01
-15.230  0.3044E+00  0.1594E+01
-15.220  0.2928E+00  0.1597E+01
-15.210  0.2815E+00  0.1600E+01
-15.200  0.2707E+00  0.1603E+01
-15.190  0.2606E+00  0.1605E+01
-15.180  0.2514E+00  0.1608E+01
-15.170  0.2438E+00  0.1610E+01
-15.160  0.2383E+00  0.1613E+01
-15.150  0.2356E+00  0.1615E+01
-15.140  0.2363E+00  0.1617E+01
-15.130  0.2408E+00  0.1620E+01
-15.120  0.2493E+00  0.1622E+01
-15.110  0.2618E+00  0.1625E+01
-15.100  0.2781E+00  0.1628E+01
-15.090  0.2973E+00  0.1631E+01
-15.080  0.3187E+00  0.1634E+01
-15.070  0.3411E+00  0.1637E+01
-15.060  0.3631E+00  0.1641E+01
-15.050  0.3835E+00  0.1645E+01
-15.040  0.4010E+00  0.1649E+01
-15.030  0.4143E+00  0.1653E+01
-15.020  0.4227E+00  0.1657E+01
-15.010  0.4254E+00  0.1661E+01
-15.000  0.4220E+00  0.1666E+01
-14.990  0.4126E+00  0.1670E+01
-14.980  0.3973E+00  0.1674E+01
-14.970  0.3768E+00  0.1677E+01
-14.960  0.3519E+00  0.1681E+01
-14.950  0.3234E+00  0.1684E+01
-14.940  0.2927E+00  0.1687E+01
-14.930  0.2607E+00  0.1690E+01
-14.920  0.2286E+00  0.1692E+01
-14.910  0.1975E+00  0.1694E+01
-14.900  0.1683E+00  0.1696E+01
-14.890  0.1417E+00  0.1697E+01
-14.880  0.1184E+00  0.1698E+01
-14.870  0.9874E-01  0.1699E+01
-14.860  0.8284E-01  0.1700E+01
-14.850  0.7079E-01  0.1701E+01
-14.840  0.6251E-01  0.1701E+01
-14.830  0.5784E-01  0.1702E+01
-14.820  0.5656E-01  0.1703E+01
-14.810  0.5847E-01  0.1703E+01
-14.800  0.6335E-01  0.1704E+01
-14.790  0.7105E-01  0.1705E+01
-14.780  0.8144E-01  0.1705E+01
-14.770  0.9445E-01  0.1706E+01
-14.760  0.1100E+00  0.1707E+01
-14.750  0.1279E+00  0.1709E+01
-14.740  0.1480E+00  0.1710E+01
-14.730  0.1700E+00  0.1712E+01
-14.720  0.1934E+00  0.1714E+01
-14.710  0.2174E+00  0.1716E+01
-14.700  0.2412E+00  0.1718E+01
-14.690  0.2638E+00  0.1721E+01
-14.680  0.2841E+00  0.1724E+01
-14.670  0.3007E+00  0.1727E+01
-14.660  0.3128E+00  0.1730E+01
-14.650  0.3195E+00  0.1733E+01
-14.640  0.3202E+00  0.1736E+01
-14.630  0.3147E+00  0.1740E+01
-14.620  0.3032E+00  0.1743E+01
-14.610  0.2864E+00  0.1745E+01
-14.600  0.2651E+00  0.1748E+01
-14.590  0.2405E+00  0.1750E+01
-14.580  0.2140E+00  0.1753E+01
-14.570  0.1868E+00  0.1754E+01
-14.560  0.1603E+00  0.1756E+01
-14.550  0.1355E+00  0.1757E+01
-14.540  0.1132E+00  0.1759E+01
-14.530  0.9410E-01  0.1760E+01
-14.520  0.7852E-01  0.1760E+01
-14.510  0.6656E-01  0.1761E+01
-14.500  0.5814E-01  0.1762E+01
-14.490  0.5304E-01  0.1762E+01
-14.480  0.5093E-01  0.1763E+01
-14.470  0.5148E-01  0.1763E+01
-14.460  0.5432E-01  0.1764E+01
-14.450  0.5916E-01  0.1764E+01
-14.440  0.6577E-01  0.1765E+01
-14.430  0.7399E-01  0.1766E+01
-14.420  0.8378E-01  0.1766E+01
-14.410  0.9514E-01  0.1767E+01
-14.400  0.1082E+00  0.1768E+01
-14.390  0.1230E+00  0.1770E+01
-14.380  0.1397E+00  0.1771E+01
-14.370  0.1583E+00  0.1773E+01
-14.360  0.1788E+00  0.1774E+01
-14.350  0.2011E+00  0.1777E+01
-14.340  0.2248E+00  0.1779E+01
-14.330  0.2493E+00  0.1781E+01
-14.320  0.2742E+00  0.1784E+01
-14.310  0.2985E+00  0.1787E+01
-14.300  0.3215E+00  0.1790E+01
-14.290  0.3423E+00  0.1794E+01
-14.280  0.3600E+00  0.1797E+01
-14.270  0.3741E+00  0.1801E+01
-14.260  0.3840E+00  0.1805E+01
-14.250  0.3893E+00  0.1809E+01
-14.240  0.3901E+00  0.1813E+01
-14.230  0.3864E+00  0.1816E+01
-14.220  0.3788E+00  0.1820E+01
-14.210  0.3680E+00  0.1824E+01
-14.200  0.3547E+00  0.1827E+01
-14.190  0.3401E+00  0.1831E+01
-14.180  0.3250E+00  0.1834E+01
-14.170  0.3107E+00  0.1837E+01
-14.160  0.2981E+00  0.1840E+01
-14.150  0.2880E+00  0.1843E+01
-14.140  0.2810E+00  0.1846E+01
-14.130  0.2776E+00  0.1849E+01
-14.120  0.2777E+00  0.1851E+01
-14.110  0.2812E+00  0.1854E+01
-14.100  0.2875E+00  0.1857E+01
-14.090  0.2959E+00  0.1860E+01
-14.080  0.3055E+00  0.1863E+01
-14.070  0.3154E+00  0.1866E+01
-14.060  0.3245E+00  0.1870E+01
-14.050  0.3320E+00  0.1873E+01
-14.040  0.3373E+00  0.1876E+01
-14.030  0.3400E+00  0.1880E+01
-14.020  0.3399E+00  0.1883E+01
-14.010  0.3373E+00  0.1886E+01
-14.000  0.3324E+00  0.1890E+01
-13.990  0.3259E+00  0.1893E+01
-13.980  0.3185E+00  0.1896E+01
-13.970  0.3112E+00  0.1899E+01
-13.960  0.3046E+00  0.1902E+01
-13.950  0.2995E+00  0.1905E+01
-13.940  0.2966E+00  0.1908E+01
-13.930  0.2964E+00  0.1911E+01
-13.920  0.2991E+00  0.1914E+01
-13.910  0.3048E+00  0.1917E+01
-13.900  0.3132E+00  0.1920E+01
-13.890  0.3239E+00  0.1924E+01
-13.880  0.3364E+00  0.1927E+01
-13.870  0.3498E+00  0.1931E+01
-13.860  0.3633E+00  0.1934E+01
-13.850  0.3759E+00  0.1938E+01
-13.840  0.3866E+00  0.1942E+01
-13.830  0.3947E+00  0.1946E+01
-13.820  0.3994E+00  0.1950E+01
-13.810  0.4002E+00  0.1954E+01
-13.800  0.3968E+00  0.1958E+01
-13.790  0.3892E+00  0.1962E+01
-13.780  0.3777E+00  0.1965E+01
-13.770  0.3629E+00  0.1969E+01
-13.760  0.3457E+00  0.1972E+01
-13.750  0.3272E+00  0.1976E+01
-13.740  0.3086E+00  0.1979E+01
-13.730  0.2913E+00  0.1982E+01
-13.720  0.2764E+00  0.1984E+01
-13.710  0.2652E+00  0.1987E+01
-13.700  0.2585E+00  0.1990E+01
-13.690  0.2570E+00  0.1992E+01
-13.680  0.2610E+00  0.1995E+01
-13.670  0.2705E+00  0.1998E+01
-13.660  0.2850E+00  0.2000E+01
-13.650  0.3037E+00  0.2003E+01
-13.640  0.3259E+00  0.2007E+01
-13.630  0.3502E+00  0.2010E+01
-13.620  0.3755E+00  0.2014E+01
-13.610  0.4005E+00  0.2018E+01
-13.600  0.4241E+00  0.2022E+01
-13.590  0.4453E+00  0.2027E+01
-13.580  0.4633E+00  0.2031E+01
-13.570  0.4776E+00  0.2036E+01
-13.560  0.4881E+00  0.2041E+01
-13.550  0.4947E+00  0.2046E+01
-13.540  0.4978E+00  0.2051E+01
-13.530  0.4976E+00  0.2056E+01
-13.520  0.4949E+00  0.2061E+01
-13.510  0.4900E+00  0.2066E+01
-13.500  0.4835E+00  0.2071E+01
-13.490  0.4759E+00  0.2075E+01
-13.480  0.4675E+00  0.2080E+01
-13.470  0.4585E+00  0.2085E+01
-13.460  0.4492E+00  0.2089E+01
-13.450  0.4399E+00  0.2093E+01
-13.440  0.4308E+00  0.2098E+01
-13.430  0.4223E+00  0.2102E+01
-13.420  0.4147E+00  0.2106E+01
-13.410  0.4086E+00  0.2110E+01
-13.400  0.4045E+00  0.2114E+01
-13.390  0.4029E+00  0.2118E+01
-13.380  0.4041E+00  0.2122E+01
-13.370  0.4083E+00  0.2126E+01
-13.360  0.4154E+00  0.2131E+01
-13.350  0.4251E+00  0.2135E+01
-13.340  0.4367E+00  0.2139E+01
-13.330  0.4493E+00  0.2144E+01
-13.320  0.4620E+00  0.2148E+01
-13.310  0.4734E+00  0.2153E+01
-13.300  0.4826E+00  0.2158E+01
-13.290  0.4885E+00  0.2163E+01
-13.280  0.4904E+00  0.2168E+01
-13.270  0.4878E+00  0.2173E+01
-13.260  0.4805E+00  0.2177E+01
-13.250  0.4688E+00  0.2182E+01
-13.240  0.4533E+00  0.2187E+01
-13.230  0.4349E+00  0.2191E+01
-13.220  0.4147E+00  0.2195E+01
-13.210  0.3939E+00  0.2199E+01
-13.200  0.3739E+00  0.2203E+01
-13.190  0.3557E+00  0.2206E+01
-13.180  0.3405E+00  0.2210E+01
-13.170  0.3289E+00  0.2213E+01
-13.160  0.3215E+00  0.2216E+01
-13.150  0.3182E+00  0.2219E+01
-13.140  0.3189E+00  0.2223E+01
-13.130  0.3231E+00  0.2226E+01
-13.120  0.3298E+00  0.2229E+01
-13.110  0.3384E+00  0.2233E+01
-13.100  0.3477E+00  0.2236E+01
-13.090  0.3569E+00  0.2240E+01
-13.080  0.3654E+00  0.2243E+01
-13.070  0.3727E+00  0.2247E+01
-13.060  0.3784E+00  0.2251E+01
-13.050  0.3826E+00  0.2255E+01
-13.040  0.3855E+00  0.2258E+01
-13.030  0.3873E+00  0.2262E+01
-13.020  0.3886E+00  0.2266E+01
-13.010  0.3896E+00  0.2270E+01
-13.000  0.3906E+00  0.2274E+01
-12.990  0.3919E+00  0.2278E+01
-12.980  0.3932E+00  0.2282E+01
-12.970  0.3944E+00  0.2286E+01
-12.960  0.3950E+00  0.2290E+01
-12.950  0.3945E+00  0.2294E+01
-12.940  0.3923E+00  0.2298E+01
-12.930  0.3879E+00  0.2301E+01
-12.920  0.3808E+00  0.2305E+01
-12.910  0.3710E+00  0.2309E+01
-12.900  0.3585E+00  0.2313E+01
-12.890  0.3438E+00  0.2316E+01
-12.880  0.3276E+00  0.2319E+01
-12.870  0.3109E+00  0.2322E+01
-12.860  0.2950E+00  0.2325E+01
-12.850  0.2810E+00  0.2328E+01
-12.840  0.2701E+00  0.2331E+01
-12.830  0.2633E+00  0.2333E+01
-12.820  0.2613E+00  0.2336E+01
-12.810  0.2644E+00  0.2339E+01
-12.800  0.2726E+00  0.2341E+01
-12.790  0.2853E+00  0.2344E+01
-12.780  0.3016E+00  0.2347E+01
-12.770  0.3203E+00  0.2351E+01
-12.760  0.3401E+00  0.2354E+01
-12.750  0.3595E+00  0.2358E+01
-12.740  0.3771E+00  0.2361E+01
-12.730  0.3918E+00  0.2365E+01
-12.720  0.4025E+00  0.2369E+01
-12.710  0.4088E+00  0.2373E+01
-12.700  0.4102E+00  0.2377E+01
-12.690  0.4071E+00  0.2382E+01
-12.680  0.3998E+00  0.2386E+01
-12.670  0.3891E+00  0.2389E+01
-12.660  0.3758E+00  0.2393E+01
-12.650  0.3610E+00  0.2397E+01
-12.640  0.3456E+00  0.2400E+01
-12.630  0.3304E+00  0.2404E+01
-12.620  0.3163E+00  0.2407E+01
-12.610  0.3036E+00  0.2410E+01
-12.600  0.2928E+00  0.2413E+01
-12.590  0.2839E+00  0.2415E+01
-12.580  0.2768E+00  0.2418E+01
-12.570  0.2714E+00  0.2421E+01
-12.560  0.2676E+00  0.2424E+01
-12.550  0.2651E+00  0.2426E+01
-12.540  0.2639E+00  0.2429E+01
-12.530  0.2641E+00  0.2432E+01
-12.520  0.2656E+00  0.2434E+01
-12.510  0.2687E+00  0.2437E+01
-12.500  0.2733E+00  0.2440E+01
-12.490  0.2797E+00  0.2442E+01
-12.480  0.2877E+00  0.2445E+01
-12.470  0.2971E+00  0.2448E+01
-12.460  0.3076E+00  0.2451E+01
-12.450  0.3187E+00  0.2455E+01
-12.440  0.3298E+00  0.2458E+01
-12.430  0.3402E+00  0.2461E+01
-12.420  0.3494E+00  0.2465E+01
-12.410  0.3567E+00  0.2468E+01
-12.400  0.3617E+00  0.2472E+01
-12.390  0.3642E+00  0.2476E+01
-12.380  0.3640E+00  0.2479E+01
-12.370  0.3612E+00  0.2483E+01
-12.360  0.3561E+00  0.2486E+01
-12.350  0.3490E+00  0.2490E+01
-12.340  0.3403E+00  0.2493E+01
-12.330  0.3305E+00  0.2497E+01
-12.320  0.3200E+00  0.2500E+01
-12.310  0.3094E+00  0.2503E+01
-12.300  0.2990E+00  0.2506E+01
-12.290  0.2891E+00  0.2509E+01
-12.280  0.2800E+00  0.2512E+01
-12.270  0.2718E+00  0.2514E+01
-12.260  0.2649E+00  0.2517E+01
-12.250  0.2591E+00  0.2520E+01
-12.240  0.2545E+00  0.2522E+01
-12.230  0.2512E+00  0.2525E+01
-12.220  0.2490E+00  0.2527E+01
-12.210  0.2480E+00  0.2530E+01
-12.200  0.2481E+00  0.2532E+01
-12.190  0.2493E+00  0.2535E+01
-12.180  0.2516E+00  0.2537E+01
-12.170  0.2551E+00  0.2540E+01
-12.160  0.2598E+00  0.2542E+01
-12.150  0.2658E+00  0.2545E+01
-12.140  0.2729E+00  0.2548E+01
-12.130  0.2812E+00  0.2550E+01
-12.120  0.2906E+00  0.2553E+01
-12.110  0.3007E+00  0.2556E+01
-12.100  0.3114E+00  0.2559E+01
-12.090  0.3220E+00  0.2563E+01
-12.080  0.3321E+00  0.2566E+01
-12.070  0.3411E+00  0.2569E+01
-12.060  0.3484E+00  0.2573E+01
-12.050  0.3534E+00  0.2576E+01
-12.040  0.3556E+00  0.2580E+01
-12.030  0.3547E+00  0.2584E+01
-12.020  0.3504E+00  0.2587E+01
-12.010  0.3428E+00  0.2590E+01
-12.000  0.3320E+00  0.2594E+01
-11.990  0.3185E+00  0.2597E+01
-11.980  0.3028E+00  0.2600E+01
-11.970  0.2857E+00  0.2603E+01
-11.960  0.2678E+00  0.2606E+01
-11.950  0.2502E+00  0.2608E+01
-11.940  0.2336E+00  0.2610E+01
-11.930  0.2190E+00  0.2613E+01
-11.920  0.2070E+00  0.2615E+01
-11.910  0.1984E+00  0.2617E+01
-11.900  0.1936E+00  0.2619E+01
-11.890  0.1929E+00  0.2620E+01
-11.880  0.1964E+00  0.2622E+01
-11.870  0.2040E+00  0.2624E+01
-11.860  0.2153E+00  0.2627E+01
-11.850  0.2296E+00  0.2629E+01
-11.840  0.2461E+00  0.2631E+01
-11.830  0.2640E+00  0.2634E+01
-11.820  0.2822E+00  0.2637E+01
-11.810  0.2998E+00  0.2640E+01
-11.800  0.3158E+00  0.2643E+01
-11.790  0.3296E+00  0.2646E+01
-11.780  0.3406E+00  0.2650E+01
-11.770  0.3484E+00  0.2653E+01
-11.760  0.3529E+00  0.2657E+01
-11.750  0.3542E+00  0.2660E+01
-11.740  0.3525E+00  0.2664E+01
-11.730  0.3484E+00  0.2667E+01
-11.720  0.3424E+00  0.2671E+01
-11.710  0.3350E+00  0.2674E+01
-11.700  0.3268E+00  0.2677E+01
-11.690  0.3184E+00  0.2680E+01
-11.680  0.3102E+00  0.2684E+01
-11.670  0.3029E+00  0.2687E+01
-11.660  0.2967E+00  0.2690E+01
-11.650  0.2919E+00  0.2692E+01
-11.640  0.2887E+00  0.2695E+01
-11.630  0.2873E+00  0.2698E+01
-11.620  0.2878E+00  0.2701E+01
-11.610  0.2904E+00  0.2704E+01
-11.600  0.2950E+00  0.2707E+01
-11.590  0.3017E+00  0.2710E+01
-11.580  0.3104E+00  0.2713E+01
-11.570  0.3208E+00  0.2716E+01
-11.560  0.3328E+00  0.2720E+01
-11.550  0.3459E+00  0.2723E+01
-11.540  0.3595E+00  0.2727E+01
-11.530  0.3729E+00  0.2730E+01
-11.520  0.3854E+00  0.2734E+01
-11.510  0.3960E+00  0.2738E+01
-11.500  0.4041E+00  0.2742E+01
-11.490  0.4089E+00  0.2746E+01
-11.480  0.4099E+00  0.2750E+01
-11.470  0.4071E+00  0.2755E+01
-11.460  0.4004E+00  0.2759E+01
-11.450  0.3902E+00  0.2762E+01
-11.440  0.3775E+00  0.2766E+01
-11.430  0.3629E+00  0.2770E+01
-11.420  0.3477E+00  0.2773E+01
-11.410  0.3330E+00  0.2777E+01
-11.400  0.3199E+00  0.2780E+01
-11.390  0.3094E+00  0.2783E+01
-11.380  0.3021E+00  0.2786E+01
-11.370  0.2986E+00  0.2789E+01
-11.360  0.2990E+00  0.2792E+01
-11.350  0.3031E+00  0.2795E+01
-11.340  0.3107E+00  0.2798E+01
-11.330  0.3211E+00  0.2801E+01
-11.320  0.3336E+00  0.2805E+01
-11.310  0.3472E+00  0.2808E+01
-11.300  0.3612E+00  0.2812E+01
-11.290  0.3747E+00  0.2815E+01
-11.280  0.3871E+00  0.2819E+01
-11.270  0.3977E+00  0.2823E+01
-11.260  0.4062E+00  0.2827E+01
-11.250  0.4125E+00  0.2831E+01
-11.240  0.4164E+00  0.2836E+01
-11.230  0.4181E+00  0.2840E+01
-11.220  0.4178E+00  0.2844E+01
-11.210  0.4158E+00  0.2848E+01
-11.200  0.4122E+00  0.2852E+01
-11.190  0.4073E+00  0.2856E+01
-11.180  0.4013E+00  0.2860E+01
-11.170  0.3944E+00  0.2864E+01
-11.160  0.3868E+00  0.2868E+01
-11.150  0.3786E+00  0.2872E+01
-11.140  0.3700E+00  0.2876E+01
-11.130  0.3613E+00  0.2879E+01
-11.120  0.3529E+00  0.2883E+01
-11.110  0.3451E+00  0.2886E+01
-11.100  0.3384E+00  0.2890E+01
-11.090  0.3331E+00  0.2893E+01
-11.080  0.3295E+00  0.2896E+01
-11.070  0.3277E+00  0.2900E+01
-11.060  0.3277E+00  0.2903E+01
-11.050  0.3293E+00  0.2906E+01
-11.040  0.3319E+00  0.2909E+01
-11.030  0.3351E+00  0.2913E+01
-11.020  0.3381E+00  0.2916E+01
-11.010  0.3404E+00  0.2920E+01
-11.000  0.3415E+00  0.2923E+01
-10.990  0.3409E+00  0.2926E+01
-10.980  0.3388E+00  0.2930E+01
-10.970  0.3354E+00  0.2933E+01
-10.960  0.3312E+00  0.2936E+01
-10.950  0.3269E+00  0.2940E+01
-10.940  0.3234E+00  0.2943E+01
-10.930  0.3217E+00  0.2946E+01
-10.920  0.3226E+00  0.2949E+01
-10.910  0.3266E+00  0.2953E+01
-10.900  0.3341E+00  0.2956E+01
-10.890  0.3449E+00  0.2959E+01
-10.880  0.3588E+00  0.2963E+01
-10.870  0.3750E+00  0.2967E+01
-10.860  0.3926E+00  0.2971E+01
-10.850  0.4108E+00  0.2975E+01
-10.840  0.4284E+00  0.2979E+01
-10.830  0.4446E+00  0.2984E+01
-10.820  0.4585E+00  0.2988E+01
-10.810  0.4697E+00  0.2993E+01
-10.800  0.4776E+00  0.2998E+01
-10.790  0.4821E+00  0.3002E+01
-10.780  0.4831E+00  0.3007E+01
-10.770  0.4806E+00  0.3012E+01
-10.760  0.4747E+00  0.3017E+01
-10.750  0.4657E+00  0.3021E+01
-10.740  0.4537E+00  0.3026E+01
-10.730  0.4390E+00  0.3030E+01
-10.720  0.4219E+00  0.3035E+01
-10.710  0.4030E+00  0.3039E+01
-10.700  0.3826E+00  0.3042E+01
-10.690  0.3614E+00  0.3046E+01
-10.680  0.3399E+00  0.3049E+01
-10.670  0.3189E+00  0.3053E+01
-10.660  0.2991E+00  0.3056E+01
-10.650  0.2810E+00  0.3058E+01
-10.640  0.2653E+00  0.3061E+01
-10.630  0.2525E+00  0.3064E+01
-10.620  0.2430E+00  0.3066E+01
-10.610  0.2372E+00  0.3068E+01
-10.600  0.2352E+00  0.3071E+01
-10.590  0.2373E+00  0.3073E+01
-10.580  0.2435E+00  0.3076E+01
-10.570  0.2536E+00  0.3078E+01
-10.560  0.2675E+00  0.3081E+01
-10.550  0.2849E+00  0.3084E+01
-10.540  0.3053E+00  0.3087E+01
-10.530  0.3282E+00  0.3090E+01
-10.520  0.3529E+00  0.3094E+01
-10.510  0.3787E+00  0.3097E+01
-10.500  0.4048E+00  0.3101E+01
-10.490  0.4304E+00  0.3106E+01
-10.480  0.4547E+00  0.3110E+01
-10.470  0.4769E+00  0.3115E+01
-10.460  0.4962E+00  0.3120E+01
-10.450  0.5119E+00  0.3125E+01
-10.440  0.5236E+00  0.3130E+01
-10.430  0.5305E+00  0.3136E+01
-10.420  0.5325E+00  0.3141E+01
-10.410  0.5293E+00  0.3146E+01
-10.400  0.5209E+00  0.3151E+01
-10.390  0.5076E+00  0.3157E+01
-10.380  0.4896E+00  0.3161E+01
-10.370  0.4678E+00  0.3166E+01
-10.360  0.4429E+00  0.3171E+01
-10.350  0.4161E+00  0.3175E+01
-10.340  0.3884E+00  0.3179E+01
-10.330  0.3609E+00  0.3182E+01
-10.320  0.3350E+00  0.3186E+01
-10.310  0.3116E+00  0.3189E+01
-10.300  0.2918E+00  0.3192E+01
-10.290  0.2764E+00  0.3194E+01
-10.280  0.2660E+00  0.3197E+01
-10.270  0.2611E+00  0.3200E+01
-10.260  0.2619E+00  0.3202E+01
-10.250  0.2685E+00  0.3205E+01
-10.240  0.2806E+00  0.3208E+01
-10.230  0.2976E+00  0.3211E+01
-10.220  0.3187E+00  0.3214E+01
-10.210  0.3429E+00  0.3217E+01
-10.200  0.3688E+00  0.3221E+01
-10.190  0.3948E+00  0.3225E+01
-10.180  0.4195E+00  0.3229E+01
-10.170  0.4412E+00  0.3234E+01
-10.160  0.4586E+00  0.3238E+01
-10.150  0.4706E+00  0.3243E+01
-10.140  0.4764E+00  0.3248E+01
-10.130  0.4757E+00  0.3252E+01
-10.120  0.4688E+00  0.3257E+01
-10.110  0.4563E+00  0.3262E+01
-10.100  0.4391E+00  0.3266E+01
-10.090  0.4187E+00  0.3270E+01
-10.080  0.3965E+00  0.3274E+01
-10.070  0.3741E+00  0.3278E+01
-10.060  0.3530E+00  0.3281E+01
-10.050  0.3345E+00  0.3285E+01
-10.040  0.3197E+00  0.3288E+01
-10.030  0.3094E+00  0.3291E+01
-10.020  0.3038E+00  0.3294E+01
-10.010  0.3031E+00  0.3297E+01
-10.000  0.3071E+00  0.3300E+01
 -9.990  0.3153E+00  0.3303E+01
 -9.980  0.3270E+00  0.3307E+01
 -9.970  0.3416E+00  0.3310E+01
 -9.960  0.3582E+00  0.3314E+01
 -9.950  0.3761E+00  0.3317E+01
 -9.940  0.3948E+00  0.3321E+01
 -9.930  0.4136E+00  0.3325E+01
 -9.920  0.4321E+00  0.3330E+01
 -9.910  0.4498E+00  0.3334E+01
 -9.900  0.4664E+00  0.3339E+01
 -9.890  0.4814E+00  0.3344E+01
 -9.880  0.4943E+00  0.3349E+01
 -9.870  0.5046E+00  0.3354E+01
 -9.860  0.5118E+00  0.3359E+01
 -9.850  0.5152E+00  0.3364E+01
 -9.840  0.5145E+00  0.3369E+01
 -9.830  0.5094E+00  0.3374E+01
 -9.820  0.4999E+00  0.3379E+01
 -9.810  0.4862E+00  0.3384E+01
 -9.800  0.4689E+00  0.3389E+01
 -9.790  0.4488E+00  0.3393E+01
 -9.780  0.4270E+00  0.3398E+01
 -9.770  0.4047E+00  0.3402E+01
 -9.760  0.3831E+00  0.3405E+01
 -9.750  0.3633E+00  0.3409E+01
 -9.740  0.3462E+00  0.3413E+01
 -9.730  0.3323E+00  0.3416E+01
 -9.720  0.3218E+00  0.3419E+01
 -9.710  0.3147E+00  0.3422E+01
 -9.700  0.3105E+00  0.3425E+01
 -9.690  0.3087E+00  0.3428E+01
 -9.680  0.3086E+00  0.3432E+01
 -9.670  0.3096E+00  0.3435E+01
 -9.660  0.3112E+00  0.3438E+01
 -9.650  0.3133E+00  0.3441E+01
 -9.640  0.3159E+00  0.3444E+01
 -9.630  0.3194E+00  0.3447E+01
 -9.620  0.3243E+00  0.3450E+01
 -9.610  0.3316E+00  0.3454E+01
 -9.600  0.3417E+00  0.3457E+01
 -9.590  0.3554E+00  0.3461E+01
 -9.580  0.3729E+00  0.3464E+01
 -9.570  0.3941E+00  0.3468E+01
 -9.560  0.4184E+00  0.3473E+01
 -9.550  0.4448E+00  0.3477E+01
 -9.540  0.4720E+00  0.3482E+01
 -9.530  0.4982E+00  0.3487E+01
 -9.520  0.5218E+00  0.3492E+01
 -9.510  0.5411E+00  0.3497E+01
 -9.500  0.5547E+00  0.3503E+01
 -9.490  0.5614E+00  0.3509E+01
 -9.480  0.5609E+00  0.3514E+01
 -9.470  0.5532E+00  0.3520E+01
 -9.460  0.5388E+00  0.3525E+01
 -9.450  0.5187E+00  0.3530E+01
 -9.440  0.4943E+00  0.3535E+01
 -9.430  0.4672E+00  0.3540E+01
 -9.420  0.4390E+00  0.3544E+01
 -9.410  0.4113E+00  0.3548E+01
 -9.400  0.3855E+00  0.3552E+01
 -9.390  0.3628E+00  0.3556E+01
 -9.380  0.3442E+00  0.3559E+01
 -9.370  0.3302E+00  0.3563E+01
 -9.360  0.3213E+00  0.3566E+01
 -9.350  0.3174E+00  0.3569E+01
 -9.340  0.3185E+00  0.3572E+01
 -9.330  0.3244E+00  0.3575E+01
 -9.320  0.3344E+00  0.3579E+01
 -9.310  0.3481E+00  0.3582E+01
 -9.300  0.3648E+00  0.3586E+01
 -9.290  0.3837E+00  0.3590E+01
 -9.280  0.4040E+00  0.3594E+01
 -9.270  0.4247E+00  0.3598E+01
 -9.260  0.4451E+00  0.3602E+01
 -9.250  0.4642E+00  0.3607E+01
 -9.240  0.4811E+00  0.3612E+01
 -9.230  0.4950E+00  0.3617E+01
 -9.220  0.5051E+00  0.3622E+01
 -9.210  0.5110E+00  0.3627E+01
 -9.200  0.5120E+00  0.3632E+01
 -9.190  0.5082E+00  0.3637E+01
 -9.180  0.4996E+00  0.3642E+01
 -9.170  0.4866E+00  0.3647E+01
 -9.160  0.4699E+00  0.3652E+01
 -9.150  0.4505E+00  0.3656E+01
 -9.140  0.4297E+00  0.3661E+01
 -9.130  0.4086E+00  0.3665E+01
 -9.120  0.3887E+00  0.3669E+01
 -9.110  0.3711E+00  0.3672E+01
 -9.100  0.3570E+00  0.3676E+01
 -9.090  0.3472E+00  0.3679E+01
 -9.080  0.3421E+00  0.3683E+01
 -9.070  0.3420E+00  0.3686E+01
 -9.060  0.3467E+00  0.3690E+01
 -9.050  0.3559E+00  0.3693E+01
 -9.040  0.3689E+00  0.3697E+01
 -9.030  0.3851E+00  0.3701E+01
 -9.020  0.4036E+00  0.3705E+01
 -9.010  0.4234E+00  0.3709E+01
 -9.000  0.4439E+00  0.3713E+01
 -8.990  0.4641E+00  0.3718E+01
 -8.980  0.4832E+00  0.3723E+01
 -8.970  0.5008E+00  0.3728E+01
 -8.960  0.5160E+00  0.3733E+01
 -8.950  0.5286E+00  0.3738E+01
 -8.940  0.5380E+00  0.3744E+01
 -8.930  0.5441E+00  0.3749E+01
 -8.920  0.5468E+00  0.3755E+01
 -8.910  0.5461E+00  0.3760E+01
 -8.900  0.5422E+00  0.3766E+01
 -8.890  0.5354E+00  0.3771E+01
 -8.880  0.5262E+00  0.3776E+01
 -8.870  0.5152E+00  0.3781E+01
 -8.860  0.5030E+00  0.3786E+01
 -8.850  0.4904E+00  0.3791E+01
 -8.840  0.4782E+00  0.3796E+01
 -8.830  0.4669E+00  0.3801E+01
 -8.820  0.4571E+00  0.3805E+01
 -8.810  0.4494E+00  0.3810E+01
 -8.800  0.4442E+00  0.3814E+01
 -8.790  0.4415E+00  0.3819E+01
 -8.780  0.4417E+00  0.3823E+01
 -8.770  0.4446E+00  0.3827E+01
 -8.760  0.4503E+00  0.3832E+01
 -8.750  0.4588E+00  0.3837E+01
 -8.740  0.4700E+00  0.3841E+01
 -8.730  0.4838E+00  0.3846E+01
 -8.720  0.5003E+00  0.3851E+01
 -8.710  0.5192E+00  0.3856E+01
 -8.700  0.5405E+00  0.3862E+01
 -8.690  0.5640E+00  0.3867E+01
 -8.680  0.5895E+00  0.3873E+01
 -8.670  0.6165E+00  0.3879E+01
 -8.660  0.6446E+00  0.3886E+01
 -8.650  0.6733E+00  0.3893E+01
 -8.640  0.7020E+00  0.3900E+01
 -8.630  0.7301E+00  0.3907E+01
 -8.620  0.7568E+00  0.3914E+01
 -8.610  0.7817E+00  0.3922E+01
 -8.600  0.8042E+00  0.3930E+01
 -8.590  0.8238E+00  0.3939E+01
 -8.580  0.8399E+00  0.3947E+01
 -8.570  0.8523E+00  0.3955E+01
 -8.560  0.8606E+00  0.3964E+01
 -8.550  0.8646E+00  0.3973E+01
 -8.540  0.8640E+00  0.3981E+01
 -8.530  0.8588E+00  0.3990E+01
 -8.520  0.8490E+00  0.3998E+01
 -8.510  0.8348E+00  0.4007E+01
 -8.500  0.8166E+00  0.4015E+01
 -8.490  0.7950E+00  0.4023E+01
 -8.480  0.7707E+00  0.4031E+01
 -8.470  0.7445E+00  0.4038E+01
 -8.460  0.7176E+00  0.4045E+01
 -8.450  0.6912E+00  0.4052E+01
 -8.440  0.6663E+00  0.4059E+01
 -8.430  0.6442E+00  0.4065E+01
 -8.420  0.6258E+00  0.4072E+01
 -8.410  0.6120E+00  0.4078E+01
 -8.400  0.6034E+00  0.4084E+01
 -8.390  0.6003E+00  0.4090E+01
 -8.380  0.6030E+00  0.4096E+01
 -8.370  0.6114E+00  0.4102E+01
 -8.360  0.6253E+00  0.4108E+01
 -8.350  0.6443E+00  0.4115E+01
 -8.340  0.6681E+00  0.4121E+01
 -8.330  0.6959E+00  0.4128E+01
 -8.320  0.7271E+00  0.4135E+01
 -8.310  0.7608E+00  0.4143E+01
 -8.300  0.7959E+00  0.4151E+01
 -8.290  0.8313E+00  0.4159E+01
 -8.280  0.8657E+00  0.4168E+01
 -8.270  0.8975E+00  0.4177E+01
 -8.260  0.9254E+00  0.4186E+01
 -8.250  0.9479E+00  0.4196E+01
 -8.240  0.9638E+00  0.4205E+01
 -8.230  0.9721E+00  0.4215E+01
 -8.220  0.9722E+00  0.4225E+01
 -8.210  0.9640E+00  0.4234E+01
 -8.200  0.9479E+00  0.4244E+01
 -8.190  0.9246E+00  0.4253E+01
 -8.180  0.8954E+00  0.4262E+01
 -8.170  0.8620E+00  0.4271E+01
 -8.160  0.8261E+00  0.4279E+01
 -8.150  0.7899E+00  0.4287E+01
 -8.140  0.7553E+00  0.4294E+01
 -8.130  0.7242E+00  0.4302E+01
 -8.120  0.6982E+00  0.4309E+01
 -8.110  0.6784E+00  0.4315E+01
 -8.100  0.6657E+00  0.4322E+01
 -8.090  0.6603E+00  0.4329E+01
 -8.080  0.6622E+00  0.4335E+01
 -8.070  0.6708E+00  0.4342E+01
 -8.060  0.6851E+00  0.4349E+01
 -8.050  0.7039E+00  0.4356E+01
 -8.040  0.7261E+00  0.4363E+01
 -8.030  0.7501E+00  0.4371E+01
 -8.020  0.7748E+00  0.4378E+01
 -8.010  0.7990E+00  0.4386E+01
 -8.000  0.8218E+00  0.4395E+01
 -7.990  0.8426E+00  0.4403E+01
 -7.980  0.8610E+00  0.4412E+01
 -7.970  0.8768E+00  0.4420E+01
 -7.960  0.8901E+00  0.4429E+01
 -7.950  0.9009E+00  0.4438E+01
 -7.940  0.9096E+00  0.4447E+01
 -7.930  0.9163E+00  0.4457E+01
 -7.920  0.9214E+00  0.4466E+01
 -7.910  0.9250E+00  0.4475E+01
 -7.900  0.9273E+00  0.4484E+01
 -7.890  0.9285E+00  0.4494E+01
 -7.880  0.9287E+00  0.4503E+01
 -7.870  0.9281E+00  0.4512E+01
 -7.860  0.9269E+00  0.4521E+01
 -7.850  0.9254E+00  0.4531E+01
 -7.840  0.9239E+00  0.4540E+01
 -7.830  0.9226E+00  0.4549E+01
 -7.820  0.9218E+00  0.4558E+01
 -7.810  0.9218E+00  0.4568E+01
 -7.800  0.9225E+00  0.4577E+01
 -7.790  0.9241E+00  0.4586E+01
 -7.780  0.9264E+00  0.4595E+01
 -7.770  0.9293E+00  0.4605E+01
 -7.760  0.9328E+00  0.4614E+01
 -7.750  0.9366E+00  0.4623E+01
 -7.740  0.9407E+00  0.4633E+01
 -7.730  0.9450E+00  0.4642E+01
 -7.720  0.9498E+00  0.4652E+01
 -7.710  0.9553E+00  0.4661E+01
 -7.700  0.9618E+00  0.4671E+01
 -7.690  0.9698E+00  0.4681E+01
 -7.680  0.9798E+00  0.4690E+01
 -7.670  0.9920E+00  0.4700E+01
 -7.660  0.1007E+01  0.4710E+01
 -7.650  0.1024E+01  0.4721E+01
 -7.640  0.1044E+01  0.4731E+01
 -7.630  0.1065E+01  0.4742E+01
 -7.620  0.1087E+01  0.4753E+01
 -7.610  0.1110E+01  0.4764E+01
 -7.600  0.1131E+01  0.4775E+01
 -7.590  0.1150E+01  0.4786E+01
 -7.580  0.1165E+01  0.4798E+01
 -7.570  0.1174E+01  0.4810E+01
 -7.560  0.1179E+01  0.4822E+01
 -7.550  0.1177E+01  0.4833E+01
 -7.540  0.1169E+01  0.4845E+01
 -7.530  0.1156E+01  0.4857E+01
 -7.520  0.1138E+01  0.4868E+01
 -7.510  0.1118E+01  0.4879E+01
 -7.500  0.1096E+01  0.4890E+01
 -7.490  0.1075E+01  0.4901E+01
 -7.480  0.1056E+01  0.4911E+01
 -7.470  0.1040E+01  0.4922E+01
 -7.460  0.1029E+01  0.4932E+01
 -7.450  0.1023E+01  0.4942E+01
 -7.440  0.1021E+01  0.4953E+01
 -7.430  0.1025E+01  0.4963E+01
 -7.420  0.1032E+01  0.4973E+01
 -7.410  0.1041E+01  0.4984E+01
 -7.400  0.1051E+01  0.4994E+01
 -7.390  0.1060E+01  0.5005E+01
 -7.380  0.1067E+01  0.5015E+01
 -7.370  0.1072E+01  0.5026E+01
 -7.360  0.1072E+01  0.5037E+01
 -7.350  0.1069E+01  0.5047E+01
 -7.340  0.1060E+01  0.5058E+01
 -7.330  0.1047E+01  0.5069E+01
 -7.320  0.1030E+01  0.5079E+01
 -7.310  0.1009E+01  0.5089E+01
 -7.300  0.9856E+00  0.5099E+01
 -7.290  0.9595E+00  0.5108E+01
 -7.280  0.9320E+00  0.5118E+01
 -7.270  0.9041E+00  0.5127E+01
 -7.260  0.8769E+00  0.5136E+01
 -7.250  0.8512E+00  0.5144E+01
 -7.240  0.8280E+00  0.5152E+01
 -7.230  0.8079E+00  0.5160E+01
 -7.220  0.7915E+00  0.5168E+01
 -7.210  0.7790E+00  0.5176E+01
 -7.200  0.7703E+00  0.5184E+01
 -7.190  0.7652E+00  0.5191E+01
 -7.180  0.7632E+00  0.5199E+01
 -7.170  0.7635E+00  0.5207E+01
 -7.160  0.7655E+00  0.5214E+01
 -7.150  0.7684E+00  0.5222E+01
 -7.140  0.7717E+00  0.5230E+01
 -7.130  0.7750E+00  0.5238E+01
 -7.120  0.7780E+00  0.5245E+01
 -7.110  0.7810E+00  0.5253E+01
 -7.100  0.7839E+00  0.5261E+01
 -7.090  0.7872E+00  0.5269E+01
 -7.080  0.7910E+00  0.5277E+01
 -7.070  0.7955E+00  0.5285E+01
 -7.060  0.8008E+00  0.5293E+01
 -7.050  0.8067E+00  0.5301E+01
 -7.040  0.8130E+00  0.5309E+01
 -7.030  0.8192E+00  0.5317E+01
 -7.020  0.8249E+00  0.5325E+01
 -7.010  0.8295E+00  0.5334E+01
 -7.000  0.8326E+00  0.5342E+01
 -6.990  0.8338E+00  0.5350E+01
 -6.980  0.8330E+00  0.5359E+01
 -6.970  0.8302E+00  0.5367E+01
 -6.960  0.8255E+00  0.5375E+01
 -6.950  0.8196E+00  0.5383E+01
 -6.940  0.8128E+00  0.5391E+01
 -6.930  0.8061E+00  0.5400E+01
 -6.920  0.7999E+00  0.5408E+01
 -6.910  0.7949E+00  0.5416E+01
 -6.900  0.7914E+00  0.5423E+01
 -6.890  0.7897E+00  0.5431E+01
 -6.880  0.7893E+00  0.5439E+01
 -6.870  0.7900E+00  0.5447E+01
 -6.860  0.7907E+00  0.5455E+01
 -6.850  0.7906E+00  0.5463E+01
 -6.840  0.7886E+00  0.5471E+01
 -6.830  0.7838E+00  0.5479E+01
 -6.820  0.7756E+00  0.5486E+01
 -6.810  0.7636E+00  0.5494E+01
 -6.800  0.7481E+00  0.5502E+01
 -6.790  0.7295E+00  0.5509E+01
 -6.780  0.7090E+00  0.5516E+01
 -6.770  0.6878E+00  0.5523E+01
 -6.760  0.6673E+00  0.5529E+01
 -6.750  0.6489E+00  0.5536E+01
 -6.740  0.6340E+00  0.5542E+01
 -6.730  0.6235E+00  0.5549E+01
 -6.720  0.6180E+00  0.5555E+01
 -6.710  0.6175E+00  0.5561E+01
 -6.700  0.6220E+00  0.5567E+01
 -6.690  0.6307E+00  0.5573E+01
 -6.680  0.6429E+00  0.5580E+01
 -6.670  0.6575E+00  0.5586E+01
 -6.660  0.6736E+00  0.5593E+01
 -6.650  0.6899E+00  0.5600E+01
 -6.640  0.7056E+00  0.5607E+01
 -6.630  0.7199E+00  0.5614E+01
 -6.620  0.7321E+00  0.5622E+01
 -6.610  0.7419E+00  0.5629E+01
 -6.600  0.7489E+00  0.5637E+01
 -6.590  0.7532E+00  0.5644E+01
 -6.580  0.7548E+00  0.5652E+01
 -6.570  0.7542E+00  0.5659E+01
 -6.560  0.7516E+00  0.5667E+01
 -6.550  0.7476E+00  0.5674E+01
 -6.540  0.7427E+00  0.5682E+01
 -6.530  0.7373E+00  0.5689E+01
 -6.520  0.7319E+00  0.5696E+01
 -6.510  0.7269E+00  0.5704E+01
 -6.500  0.7225E+00  0.5711E+01
 -6.490  0.7189E+00  0.5718E+01
 -6.480  0.7161E+00  0.5725E+01
 -6.470  0.7140E+00  0.5732E+01
 -6.460  0.7124E+00  0.5739E+01
 -6.450  0.7110E+00  0.5746E+01
 -6.440  0.7095E+00  0.5754E+01
 -6.430  0.7073E+00  0.5761E+01
 -6.420  0.7043E+00  0.5768E+01
 -6.410  0.7000E+00  0.5775E+01
 -6.400  0.6940E+00  0.5782E+01
 -6.390  0.6862E+00  0.5788E+01
 -6.380  0.6764E+00  0.5795E+01
 -6.370  0.6647E+00  0.5802E+01
 -6.360  0.6512E+00  0.5808E+01
 -6.350  0.6364E+00  0.5815E+01
 -6.340  0.6208E+00  0.5821E+01
 -6.330  0.6051E+00  0.5827E+01
 -6.320  0.5903E+00  0.5833E+01
 -6.310  0.5772E+00  0.5839E+01
 -6.300  0.5669E+00  0.5844E+01
 -6.290  0.5601E+00  0.5850E+01
 -6.280  0.5575E+00  0.5856E+01
 -6.270  0.5594E+00  0.5861E+01
 -6.260  0.5660E+00  0.5867E+01
 -6.250  0.5769E+00  0.5873E+01
 -6.240  0.5918E+00  0.5878E+01
 -6.230  0.6097E+00  0.5885E+01
 -6.220  0.6299E+00  0.5891E+01
 -6.210  0.6512E+00  0.5897E+01
 -6.200  0.6727E+00  0.5904E+01
 -6.190  0.6934E+00  0.5911E+01
 -6.180  0.7125E+00  0.5918E+01
 -6.170  0.7291E+00  0.5925E+01
 -6.160  0.7428E+00  0.5933E+01
 -6.150  0.7530E+00  0.5940E+01
 -6.140  0.7594E+00  0.5948E+01
 -6.130  0.7617E+00  0.5956E+01
 -6.120  0.7597E+00  0.5963E+01
 -6.110  0.7535E+00  0.5971E+01
 -6.100  0.7429E+00  0.5978E+01
 -6.090  0.7283E+00  0.5985E+01
 -6.080  0.7098E+00  0.5993E+01
 -6.070  0.6880E+00  0.5999E+01
 -6.060  0.6636E+00  0.6006E+01
 -6.050  0.6372E+00  0.6012E+01
 -6.040  0.6099E+00  0.6019E+01
 -6.030  0.5828E+00  0.6024E+01
 -6.020  0.5569E+00  0.6030E+01
 -6.010  0.5334E+00  0.6035E+01
 -6.000  0.5134E+00  0.6040E+01
 -5.990  0.4979E+00  0.6045E+01
 -5.980  0.4876E+00  0.6050E+01
 -5.970  0.4831E+00  0.6055E+01
 -5.960  0.4850E+00  0.6060E+01
 -5.950  0.4933E+00  0.6065E+01
 -5.940  0.5079E+00  0.6070E+01
 -5.930  0.5284E+00  0.6075E+01
 -5.920  0.5542E+00  0.6081E+01
 -5.910  0.5843E+00  0.6087E+01
 -5.900  0.6174E+00  0.6093E+01
 -5.890  0.6518E+00  0.6099E+01
 -5.880  0.6860E+00  0.6106E+01
 -5.870  0.7178E+00  0.6113E+01
 -5.860  0.7454E+00  0.6121E+01
 -5.850  0.7668E+00  0.6129E+01
 -5.840  0.7807E+00  0.6136E+01
 -5.830  0.7857E+00  0.6144E+01
 -5.820  0.7812E+00  0.6152E+01
 -5.810  0.7674E+00  0.6160E+01
 -5.800  0.7449E+00  0.6167E+01
 -5.790  0.7150E+00  0.6174E+01
 -5.780  0.6795E+00  0.6181E+01
 -5.770  0.6406E+00  0.6187E+01
 -5.760  0.6008E+00  0.6193E+01
 -5.750  0.5625E+00  0.6199E+01
 -5.740  0.5279E+00  0.6204E+01
 -5.730  0.4988E+00  0.6209E+01
 -5.720  0.4766E+00  0.6214E+01
 -5.710  0.4622E+00  0.6219E+01
 -5.700  0.4559E+00  0.6223E+01
 -5.690  0.4573E+00  0.6228E+01
 -5.680  0.4659E+00  0.6233E+01
 -5.670  0.4807E+00  0.6237E+01
 -5.660  0.5003E+00  0.6242E+01
 -5.650  0.5235E+00  0.6248E+01
 -5.640  0.5488E+00  0.6253E+01
 -5.630  0.5750E+00  0.6259E+01
 -5.620  0.6007E+00  0.6265E+01
 -5.610  0.6247E+00  0.6271E+01
 -5.600  0.6462E+00  0.6278E+01
 -5.590  0.6641E+00  0.6284E+01
 -5.580  0.6778E+00  0.6291E+01
 -5.570  0.6867E+00  0.6298E+01
 -5.560  0.6907E+00  0.6305E+01
 -5.550  0.6896E+00  0.6312E+01
 -5.540  0.6838E+00  0.6318E+01
 -5.530  0.6739E+00  0.6325E+01
 -5.520  0.6606E+00  0.6332E+01
 -5.510  0.6448E+00  0.6338E+01
 -5.500  0.6277E+00  0.6345E+01
 -5.490  0.6104E+00  0.6351E+01
 -5.480  0.5937E+00  0.6357E+01
 -5.470  0.5786E+00  0.6362E+01
 -5.460  0.5657E+00  0.6368E+01
 -5.450  0.5552E+00  0.6374E+01
 -5.440  0.5474E+00  0.6379E+01
 -5.430  0.5422E+00  0.6384E+01
 -5.420  0.5395E+00  0.6390E+01
 -5.410  0.5391E+00  0.6395E+01
 -5.400  0.5408E+00  0.6401E+01
 -5.390  0.5442E+00  0.6406E+01
 -5.380  0.5492E+00  0.6412E+01
 -5.370  0.5557E+00  0.6417E+01
 -5.360  0.5635E+00  0.6423E+01
 -5.350  0.5722E+00  0.6429E+01
 -5.340  0.5818E+00  0.6434E+01
 -5.330  0.5917E+00  0.6440E+01
 -5.320  0.6015E+00  0.6446E+01
 -5.310  0.6106E+00  0.6452E+01
 -5.300  0.6183E+00  0.6459E+01
 -5.290  0.6240E+00  0.6465E+01
 -5.280  0.6269E+00  0.6471E+01
 -5.270  0.6266E+00  0.6477E+01
 -5.260  0.6227E+00  0.6484E+01
 -5.250  0.6151E+00  0.6490E+01
 -5.240  0.6038E+00  0.6496E+01
 -5.230  0.5895E+00  0.6502E+01
 -5.220  0.5726E+00  0.6507E+01
 -5.210  0.5544E+00  0.6513E+01
 -5.200  0.5358E+00  0.6518E+01
 -5.190  0.5182E+00  0.6523E+01
 -5.180  0.5027E+00  0.6528E+01
 -5.170  0.4905E+00  0.6533E+01
 -5.160  0.4824E+00  0.6538E+01
 -5.150  0.4792E+00  0.6543E+01
 -5.140  0.4811E+00  0.6548E+01
 -5.130  0.4881E+00  0.6553E+01
 -5.120  0.4999E+00  0.6558E+01
 -5.110  0.5159E+00  0.6563E+01
 -5.100  0.5352E+00  0.6568E+01
 -5.090  0.5566E+00  0.6574E+01
 -5.080  0.5792E+00  0.6580E+01
 -5.070  0.6018E+00  0.6586E+01
 -5.060  0.6231E+00  0.6592E+01
 -5.050  0.6421E+00  0.6598E+01
 -5.040  0.6579E+00  0.6605E+01
 -5.030  0.6697E+00  0.6611E+01
 -5.020  0.6771E+00  0.6618E+01
 -5.010  0.6798E+00  0.6625E+01
 -5.000  0.6776E+00  0.6632E+01
 -4.990  0.6707E+00  0.6639E+01
 -4.980  0.6597E+00  0.6645E+01
 -4.970  0.6450E+00  0.6652E+01
 -4.960  0.6275E+00  0.6658E+01
 -4.950  0.6080E+00  0.6664E+01
 -4.940  0.5875E+00  0.6670E+01
 -4.930  0.5668E+00  0.6675E+01
 -4.920  0.5469E+00  0.6681E+01
 -4.910  0.5285E+00  0.6686E+01
 -4.900  0.5124E+00  0.6691E+01
 -4.890  0.4990E+00  0.6696E+01
 -4.880  0.4887E+00  0.6701E+01
 -4.870  0.4816E+00  0.6706E+01
 -4.860  0.4778E+00  0.6711E+01
 -4.850  0.4770E+00  0.6716E+01
 -4.840  0.4788E+00  0.6720E+01
 -4.830  0.4828E+00  0.6725E+01
 -4.820  0.4883E+00  0.6730E+01
 -4.810  0.4947E+00  0.6735E+01
 -4.800  0.5014E+00  0.6740E+01
 -4.790  0.5081E+00  0.6745E+01
 -4.780  0.5144E+00  0.6750E+01
 -4.770  0.5201E+00  0.6755E+01
 -4.760  0.5254E+00  0.6761E+01
 -4.750  0.5303E+00  0.6766E+01
 -4.740  0.5352E+00  0.6771E+01
 -4.730  0.5404E+00  0.6777E+01
 -4.720  0.5462E+00  0.6782E+01
 -4.710  0.5530E+00  0.6788E+01
 -4.700  0.5607E+00  0.6793E+01
 -4.690  0.5696E+00  0.6799E+01
 -4.680  0.5794E+00  0.6805E+01
 -4.670  0.5900E+00  0.6811E+01
 -4.660  0.6012E+00  0.6817E+01
 -4.650  0.6125E+00  0.6823E+01
 -4.640  0.6235E+00  0.6829E+01
 -4.630  0.6338E+00  0.6836E+01
 -4.620  0.6429E+00  0.6842E+01
 -4.610  0.6502E+00  0.6848E+01
 -4.600  0.6551E+00  0.6855E+01
 -4.590  0.6571E+00  0.6862E+01
 -4.580  0.6558E+00  0.6868E+01
 -4.570  0.6506E+00  0.6875E+01
 -4.560  0.6416E+00  0.6881E+01
 -4.550  0.6287E+00  0.6887E+01
 -4.540  0.6122E+00  0.6893E+01
 -4.530  0.5927E+00  0.6899E+01
 -4.520  0.5712E+00  0.6905E+01
 -4.510  0.5486E+00  0.6911E+01
 -4.500  0.5260E+00  0.6916E+01
 -4.490  0.5048E+00  0.6921E+01
 -4.480  0.4859E+00  0.6926E+01
 -4.470  0.4703E+00  0.6930E+01
 -4.460  0.4586E+00  0.6935E+01
 -4.450  0.4511E+00  0.6940E+01
 -4.440  0.4477E+00  0.6944E+01
 -4.430  0.4481E+00  0.6949E+01
 -4.420  0.4518E+00  0.6953E+01
 -4.410  0.4579E+00  0.6958E+01
 -4.400  0.4657E+00  0.6962E+01
 -4.390  0.4744E+00  0.6967E+01
 -4.380  0.4833E+00  0.6972E+01
 -4.370  0.4922E+00  0.6977E+01
 -4.360  0.5008E+00  0.6982E+01
 -4.350  0.5091E+00  0.6987E+01
 -4.340  0.5174E+00  0.6992E+01
 -4.330  0.5261E+00  0.6997E+01
 -4.320  0.5353E+00  0.7003E+01
 -4.310  0.5454E+00  0.7008E+01
 -4.300  0.5564E+00  0.7014E+01
 -4.290  0.5681E+00  0.7019E+01
 -4.280  0.5801E+00  0.7025E+01
 -4.270  0.5918E+00  0.7031E+01
 -4.260  0.6023E+00  0.7037E+01
 -4.250  0.6110E+00  0.7043E+01
 -4.240  0.6171E+00  0.7049E+01
 -4.230  0.6198E+00  0.7056E+01
 -4.220  0.6188E+00  0.7062E+01
 -4.210  0.6139E+00  0.7068E+01
 -4.200  0.6051E+00  0.7074E+01
 -4.190  0.5927E+00  0.7080E+01
 -4.180  0.5769E+00  0.7086E+01
 -4.170  0.5584E+00  0.7091E+01
 -4.160  0.5377E+00  0.7097E+01
 -4.150  0.5153E+00  0.7102E+01
 -4.140  0.4918E+00  0.7107E+01
 -4.130  0.4677E+00  0.7111E+01
 -4.120  0.4435E+00  0.7116E+01
 -4.110  0.4197E+00  0.7120E+01
 -4.100  0.3966E+00  0.7124E+01
 -4.090  0.3748E+00  0.7128E+01
 -4.080  0.3545E+00  0.7131E+01
 -4.070  0.3362E+00  0.7135E+01
 -4.060  0.3201E+00  0.7138E+01
 -4.050  0.3064E+00  0.7141E+01
 -4.040  0.2952E+00  0.7144E+01
 -4.030  0.2866E+00  0.7147E+01
 -4.020  0.2803E+00  0.7149E+01
 -4.010  0.2762E+00  0.7152E+01
 -4.000  0.2739E+00  0.7155E+01
 -3.990  0.2733E+00  0.7158E+01
 -3.980  0.2739E+00  0.7160E+01
 -3.970  0.2757E+00  0.7163E+01
 -3.960  0.2785E+00  0.7166E+01
 -3.950  0.2825E+00  0.7169E+01
 -3.940  0.2878E+00  0.7172E+01
 -3.930  0.2948E+00  0.7175E+01
 -3.920  0.3039E+00  0.7178E+01
 -3.910  0.3153E+00  0.7181E+01
 -3.900  0.3293E+00  0.7184E+01
 -3.890  0.3460E+00  0.7188E+01
 -3.880  0.3651E+00  0.7191E+01
 -3.870  0.3863E+00  0.7195E+01
 -3.860  0.4090E+00  0.7199E+01
 -3.850  0.4322E+00  0.7204E+01
 -3.840  0.4549E+00  0.7208E+01
 -3.830  0.4763E+00  0.7213E+01
 -3.820  0.4953E+00  0.7218E+01
 -3.810  0.5110E+00  0.7223E+01
 -3.800  0.5230E+00  0.7228E+01
 -3.790  0.5307E+00  0.7233E+01
 -3.780  0.5342E+00  0.7239E+01
 -3.770  0.5335E+00  0.7244E+01
 -3.760  0.5292E+00  0.7249E+01
 -3.750  0.5217E+00  0.7255E+01
 -3.740  0.5118E+00  0.7260E+01
 -3.730  0.5002E+00  0.7265E+01
 -3.720  0.4878E+00  0.7270E+01
 -3.710  0.4751E+00  0.7274E+01
 -3.700  0.4627E+00  0.7279E+01
 -3.690  0.4511E+00  0.7284E+01
 -3.680  0.4404E+00  0.7288E+01
 -3.670  0.4308E+00  0.7292E+01
 -3.660  0.4223E+00  0.7296E+01
 -3.650  0.4150E+00  0.7301E+01
 -3.640  0.4087E+00  0.7305E+01
 -3.630  0.4034E+00  0.7309E+01
 -3.620  0.3989E+00  0.7313E+01
 -3.610  0.3953E+00  0.7317E+01
 -3.600  0.3927E+00  0.7321E+01
 -3.590  0.3909E+00  0.7324E+01
 -3.580  0.3903E+00  0.7328E+01
 -3.570  0.3908E+00  0.7332E+01
 -3.560  0.3925E+00  0.7336E+01
 -3.550  0.3958E+00  0.7340E+01
 -3.540  0.4006E+00  0.7344E+01
 -3.530  0.4074E+00  0.7348E+01
 -3.520  0.4163E+00  0.7352E+01
 -3.510  0.4277E+00  0.7357E+01
 -3.500  0.4420E+00  0.7361E+01
 -3.490  0.4594E+00  0.7366E+01
 -3.480  0.4802E+00  0.7371E+01
 -3.470  0.5046E+00  0.7376E+01
 -3.460  0.5325E+00  0.7381E+01
 -3.450  0.5636E+00  0.7387E+01
 -3.440  0.5971E+00  0.7393E+01
 -3.430  0.6320E+00  0.7399E+01
 -3.420  0.6669E+00  0.7405E+01
 -3.410  0.7000E+00  0.7412E+01
 -3.400  0.7295E+00  0.7420E+01
 -3.390  0.7534E+00  0.7427E+01
 -3.380  0.7698E+00  0.7435E+01
 -3.370  0.7772E+00  0.7443E+01
 -3.360  0.7743E+00  0.7451E+01
 -3.350  0.7607E+00  0.7458E+01
 -3.340  0.7365E+00  0.7466E+01
 -3.330  0.7025E+00  0.7473E+01
 -3.320  0.6600E+00  0.7479E+01
 -3.310  0.6108E+00  0.7485E+01
 -3.300  0.5572E+00  0.7491E+01
 -3.290  0.5014E+00  0.7496E+01
 -3.280  0.4458E+00  0.7500E+01
 -3.270  0.3924E+00  0.7504E+01
 -3.260  0.3430E+00  0.7508E+01
 -3.250  0.2988E+00  0.7511E+01
 -3.240  0.2607E+00  0.7513E+01
 -3.230  0.2293E+00  0.7516E+01
 -3.220  0.2046E+00  0.7518E+01
 -3.210  0.1863E+00  0.7519E+01
 -3.200  0.1740E+00  0.7521E+01
 -3.190  0.1671E+00  0.7523E+01
 -3.180  0.1650E+00  0.7524E+01
 -3.170  0.1670E+00  0.7526E+01
 -3.160  0.1725E+00  0.7528E+01
 -3.150  0.1811E+00  0.7530E+01
 -3.140  0.1923E+00  0.7532E+01
 -3.130  0.2059E+00  0.7534E+01
 -3.120  0.2217E+00  0.7536E+01
 -3.110  0.2396E+00  0.7538E+01
 -3.100  0.2596E+00  0.7541E+01
 -3.090  0.2814E+00  0.7544E+01
 -3.080  0.3050E+00  0.7547E+01
 -3.070  0.3298E+00  0.7550E+01
 -3.060  0.3555E+00  0.7554E+01
 -3.050  0.3812E+00  0.7557E+01
 -3.040  0.4061E+00  0.7561E+01
 -3.030  0.4289E+00  0.7566E+01
 -3.020  0.4487E+00  0.7570E+01
 -3.010  0.4641E+00  0.7575E+01
 -3.000  0.4742E+00  0.7580E+01
 -2.990  0.4781E+00  0.7584E+01
 -2.980  0.4752E+00  0.7589E+01
 -2.970  0.4654E+00  0.7594E+01
 -2.960  0.4491E+00  0.7598E+01
 -2.950  0.4270E+00  0.7603E+01
 -2.940  0.4002E+00  0.7607E+01
 -2.930  0.3700E+00  0.7610E+01
 -2.920  0.3380E+00  0.7614E+01
 -2.910  0.3056E+00  0.7617E+01
 -2.900  0.2744E+00  0.7619E+01
 -2.890  0.2455E+00  0.7622E+01
 -2.880  0.2196E+00  0.7624E+01
 -2.870  0.1975E+00  0.7626E+01
 -2.860  0.1792E+00  0.7628E+01
 -2.850  0.1646E+00  0.7630E+01
 -2.840  0.1535E+00  0.7631E+01
 -2.830  0.1453E+00  0.7633E+01
 -2.820  0.1396E+00  0.7634E+01
 -2.810  0.1359E+00  0.7635E+01
 -2.800  0.1337E+00  0.7637E+01
 -2.790  0.1329E+00  0.7638E+01
 -2.780  0.1331E+00  0.7639E+01
 -2.770  0.1343E+00  0.7641E+01
 -2.760  0.1364E+00  0.7642E+01
 -2.750  0.1397E+00  0.7643E+01
 -2.740  0.1440E+00  0.7645E+01
 -2.730  0.1494E+00  0.7646E+01
 -2.720  0.1561E+00  0.7648E+01
 -2.710  0.1639E+00  0.7650E+01
 -2.700  0.1730E+00  0.7651E+01
 -2.690  0.1832E+00  0.7653E+01
 -2.680  0.1945E+00  0.7655E+01
 -2.670  0.2067E+00  0.7657E+01
 -2.660  0.2196E+00  0.7659E+01
 -2.650  0.2330E+00  0.7662E+01
 -2.640  0.2464E+00  0.7664E+01
 -2.630  0.2594E+00  0.7667E+01
 -2.620  0.2714E+00  0.7669E+01
 -2.610  0.2818E+00  0.7672E+01
 -2.600  0.2900E+00  0.7675E+01
 -2.590  0.2955E+00  0.7678E+01
 -2.580  0.2978E+00  0.7681E+01
 -2.570  0.2965E+00  0.7684E+01
 -2.560  0.2916E+00  0.7687E+01
 -2.550  0.2832E+00  0.7690E+01
 -2.540  0.2716E+00  0.7692E+01
 -2.530  0.2573E+00  0.7695E+01
 -2.520  0.2411E+00  0.7697E+01
 -2.510  0.2238E+00  0.7700E+01
 -2.500  0.2062E+00  0.7702E+01
 -2.490  0.1891E+00  0.7704E+01
 -2.480  0.1733E+00  0.7705E+01
 -2.470  0.1592E+00  0.7707E+01
 -2.460  0.1472E+00  0.7708E+01
 -2.450  0.1374E+00  0.7710E+01
 -2.440  0.1297E+00  0.7711E+01
 -2.430  0.1237E+00  0.7712E+01
 -2.420  0.1193E+00  0.7714E+01
 -2.410  0.1158E+00  0.7715E+01
 -2.400  0.1129E+00  0.7716E+01
 -2.390  0.1104E+00  0.7717E+01
 -2.380  0.1079E+00  0.7718E+01
 -2.370  0.1054E+00  0.7719E+01
 -2.360  0.1030E+00  0.7720E+01
 -2.350  0.1009E+00  0.7721E+01
 -2.340  0.9918E-01  0.7722E+01
 -2.330  0.9823E-01  0.7723E+01
 -2.320  0.9826E-01  0.7724E+01
 -2.310  0.9947E-01  0.7725E+01
 -2.300  0.1020E+00  0.7726E+01
 -2.290  0.1057E+00  0.7727E+01
 -2.280  0.1107E+00  0.7728E+01
 -2.270  0.1168E+00  0.7729E+01
 -2.260  0.1237E+00  0.7731E+01
 -2.250  0.1313E+00  0.7732E+01
 -2.240  0.1393E+00  0.7733E+01
 -2.230  0.1476E+00  0.7735E+01
 -2.220  0.1561E+00  0.7736E+01
 -2.210  0.1644E+00  0.7738E+01
 -2.200  0.1724E+00  0.7740E+01
 -2.190  0.1800E+00  0.7742E+01
 -2.180  0.1867E+00  0.7743E+01
 -2.170  0.1922E+00  0.7745E+01
 -2.160  0.1963E+00  0.7747E+01
 -2.150  0.1985E+00  0.7749E+01
 -2.140  0.1985E+00  0.7751E+01
 -2.130  0.1960E+00  0.7753E+01
 -2.120  0.1909E+00  0.7755E+01
 -2.110  0.1832E+00  0.7757E+01
 -2.100  0.1731E+00  0.7759E+01
 -2.090  0.1608E+00  0.7760E+01
 -2.080  0.1470E+00  0.7762E+01
 -2.070  0.1321E+00  0.7763E+01
 -2.060  0.1168E+00  0.7764E+01
 -2.050  0.1017E+00  0.7765E+01
 -2.040  0.8752E-01  0.7766E+01
 -2.030  0.7473E-01  0.7767E+01
 -2.020  0.6377E-01  0.7768E+01
 -2.010  0.5498E-01  0.7768E+01
 -2.000  0.4855E-01  0.7769E+01
 -1.990  0.4457E-01  0.7769E+01
 -1.980  0.4300E-01  0.7769E+01
 -1.970  0.4369E-01  0.7770E+01
 -1.960  0.4641E-01  0.7770E+01
 -1.950  0.5083E-01  0.7771E+01
 -1.940  0.5656E-01  0.7771E+01
 -1.930  0.6317E-01  0.7772E+01
 -1.920  0.7019E-01  0.7773E+01
 -1.910  0.7716E-01  0.7774E+01
 -1.900  0.8366E-01  0.7774E+01
 -1.890  0.8933E-01  0.7775E+01
 -1.880  0.9392E-01  0.7776E+01
 -1.870  0.9730E-01  0.7777E+01
 -1.860  0.9948E-01  0.7778E+01
 -1.850  0.1006E+00  0.7779E+01
 -1.840  0.1008E+00  0.7780E+01
 -1.830  0.1004E+00  0.7781E+01
 -1.820  0.9985E-01  0.7782E+01
 -1.810  0.9928E-01  0.7783E+01
 -1.800  0.9897E-01  0.7784E+01
 -1.790  0.9902E-01  0.7785E+01
 -1.780  0.9941E-01  0.7786E+01
 -1.770  0.1000E+00  0.7787E+01
 -1.760  0.1006E+00  0.7788E+01
 -1.750  0.1009E+00  0.7789E+01
 -1.740  0.1006E+00  0.7790E+01
 -1.730  0.9939E-01  0.7791E+01
 -1.720  0.9710E-01  0.7792E+01
 -1.710  0.9363E-01  0.7793E+01
 -1.700  0.8902E-01  0.7794E+01
 -1.690  0.8343E-01  0.7795E+01
 -1.680  0.7711E-01  0.7796E+01
 -1.670  0.7041E-01  0.7796E+01
 -1.660  0.6371E-01  0.7797E+01
 -1.650  0.5738E-01  0.7797E+01
 -1.640  0.5176E-01  0.7798E+01
 -1.630  0.4711E-01  0.7798E+01
 -1.620  0.4360E-01  0.7799E+01
 -1.610  0.4130E-01  0.7799E+01
 -1.600  0.4015E-01  0.7800E+01
 -1.590  0.4001E-01  0.7800E+01
 -1.580  0.4067E-01  0.7801E+01
 -1.570  0.4185E-01  0.7801E+01
 -1.560  0.4325E-01  0.7801E+01
 -1.550  0.4458E-01  0.7802E+01
 -1.540  0.4558E-01  0.7802E+01
 -1.530  0.4604E-01  0.7803E+01
 -1.520  0.4584E-01  0.7803E+01
 -1.510  0.4493E-01  0.7804E+01
 -1.500  0.4336E-01  0.7804E+01
 -1.490  0.4123E-01  0.7804E+01
 -1.480  0.3874E-01  0.7805E+01
 -1.470  0.3609E-01  0.7805E+01
 -1.460  0.3354E-01  0.7806E+01
 -1.450  0.3130E-01  0.7806E+01
 -1.440  0.2959E-01  0.7806E+01
 -1.430  0.2857E-01  0.7806E+01
 -1.420  0.2832E-01  0.7807E+01
 -1.410  0.2887E-01  0.7807E+01
 -1.400  0.3016E-01  0.7807E+01
 -1.390  0.3208E-01  0.7808E+01
 -1.380  0.3444E-01  0.7808E+01
 -1.370  0.3702E-01  0.7808E+01
 -1.360  0.3957E-01  0.7809E+01
 -1.350  0.4184E-01  0.7809E+01
 -1.340  0.4359E-01  0.7810E+01
 -1.330  0.4465E-01  0.7810E+01
 -1.320  0.4489E-01  0.7811E+01
 -1.310  0.4423E-01  0.7811E+01
 -1.300  0.4268E-01  0.7811E+01
 -1.290  0.4033E-01  0.7812E+01
 -1.280  0.3729E-01  0.7812E+01
 -1.270  0.3375E-01  0.7813E+01
 -1.260  0.2988E-01  0.7813E+01
 -1.250  0.2588E-01  0.7813E+01
 -1.240  0.2193E-01  0.7813E+01
 -1.230  0.1818E-01  0.7813E+01
 -1.220  0.1474E-01  0.7814E+01
 -1.210  0.1169E-01  0.7814E+01
 -1.200  0.9072E-02  0.7814E+01
 -1.190  0.6886E-02  0.7814E+01
 -1.180  0.5112E-02  0.7814E+01
 -1.170  0.3713E-02  0.7814E+01
 -1.160  0.2638E-02  0.7814E+01
 -1.150  0.1834E-02  0.7814E+01
 -1.140  0.1249E-02  0.7814E+01
 -1.130  0.8337E-03  0.7814E+01
 -1.120  0.5484E-03  0.7814E+01
 -1.110  0.3600E-03  0.7814E+01
 -1.100  0.2439E-03  0.7814E+01
 -1.090  0.1830E-03  0.7814E+01
 -1.080  0.1678E-03  0.7814E+01
 -1.070  0.1959E-03  0.7814E+01
 -1.060  0.2717E-03  0.7814E+01
 -1.050  0.4071E-03  0.7814E+01
 -1.040  0.6211E-03  0.7814E+01
 -1.030  0.9409E-03  0.7814E+01
 -1.020  0.1402E-02  0.7814E+01
 -1.010  0.2047E-02  0.7814E+01
 -1.000  0.2925E-02  0.7814E+01
 -0.990  0.4090E-02  0.7814E+01
 -0.980  0.5594E-02  0.7814E+01
 -0.970  0.7486E-02  0.7814E+01
 -0.960  0.9799E-02  0.7814E+01
 -0.950  0.1255E-01  0.7815E+01
 -0.940  0.1572E-01  0.7815E+01
 -0.930  0.1926E-01  0.7815E+01
 -0.920  0.2308E-01  0.7815E+01
 -0.910  0.2707E-01  0.7815E+01
 -0.900  0.3105E-01  0.7816E+01
 -0.890  0.3486E-01  0.7816E+01
 -0.880  0.3829E-01  0.7816E+01
 -0.870  0.4116E-01  0.7817E+01
 -0.860  0.4333E-01  0.7817E+01
 -0.850  0.4467E-01  0.7818E+01
 -0.840  0.4513E-01  0.7818E+01
 -0.830  0.4475E-01  0.7819E+01
 -0.820  0.4360E-01  0.7819E+01
 -0.810  0.4184E-01  0.7819E+01
 -0.800  0.3968E-01  0.7820E+01
 -0.790  0.3736E-01  0.7820E+01
 -0.780  0.3513E-01  0.7821E+01
 -0.770  0.3321E-01  0.7821E+01
 -0.760  0.3182E-01  0.7821E+01
 -0.750  0.3110E-01  0.7822E+01
 -0.740  0.3111E-01  0.7822E+01
 -0.730  0.3187E-01  0.7822E+01
 -0.720  0.3330E-01  0.7823E+01
 -0.710  0.3525E-01  0.7823E+01
 -0.700  0.3753E-01  0.7823E+01
 -0.690  0.3991E-01  0.7824E+01
 -0.680  0.4216E-01  0.7824E+01
 -0.670  0.4407E-01  0.7825E+01
 -0.660  0.4544E-01  0.7825E+01
 -0.650  0.4618E-01  0.7825E+01
 -0.640  0.4625E-01  0.7826E+01
 -0.630  0.4570E-01  0.7826E+01
 -0.620  0.4466E-01  0.7827E+01
 -0.610  0.4335E-01  0.7827E+01
 -0.600  0.4202E-01  0.7828E+01
 -0.590  0.4098E-01  0.7828E+01
 -0.580  0.4052E-01  0.7828E+01
 -0.570  0.4091E-01  0.7829E+01
 -0.560  0.4236E-01  0.7829E+01
 -0.550  0.4501E-01  0.7830E+01
 -0.540  0.4889E-01  0.7830E+01
 -0.530  0.5396E-01  0.7831E+01
 -0.520  0.6003E-01  0.7831E+01
 -0.510  0.6685E-01  0.7832E+01
 -0.500  0.7412E-01  0.7833E+01
 -0.490  0.8148E-01  0.7834E+01
 -0.480  0.8859E-01  0.7834E+01
 -0.470  0.9514E-01  0.7835E+01
 -0.460  0.1009E+00  0.7836E+01
 -0.450  0.1057E+00  0.7838E+01
 -0.440  0.1095E+00  0.7839E+01
 -0.430  0.1124E+00  0.7840E+01
 -0.420  0.1144E+00  0.7841E+01
 -0.410  0.1158E+00  0.7842E+01
 -0.400  0.1165E+00  0.7843E+01
 -0.390  0.1168E+00  0.7844E+01
 -0.380  0.1167E+00  0.7846E+01
 -0.370  0.1162E+00  0.7847E+01
 -0.360  0.1152E+00  0.7848E+01
 -0.350  0.1135E+00  0.7849E+01
 -0.340  0.1111E+00  0.7850E+01
 -0.330  0.1078E+00  0.7851E+01
 -0.320  0.1035E+00  0.7852E+01
 -0.310  0.9827E-01  0.7853E+01
 -0.300  0.9222E-01  0.7854E+01
 -0.290  0.8554E-01  0.7855E+01
 -0.280  0.7856E-01  0.7856E+01
 -0.270  0.7165E-01  0.7856E+01
 -0.260  0.6520E-01  0.7857E+01
 -0.250  0.5962E-01  0.7858E+01
 -0.240  0.5530E-01  0.7858E+01
 -0.230  0.5256E-01  0.7859E+01
 -0.220  0.5166E-01  0.7859E+01
 -0.210  0.5275E-01  0.7860E+01
 -0.200  0.5593E-01  0.7860E+01
 -0.190  0.6121E-01  0.7861E+01
 -0.180  0.6850E-01  0.7862E+01
 -0.170  0.7768E-01  0.7862E+01
 -0.160  0.8855E-01  0.7863E+01
 -0.150  0.1009E+00  0.7864E+01
 -0.140  0.1143E+00  0.7866E+01
 -0.130  0.1285E+00  0.7867E+01
 -0.120  0.1432E+00  0.7868E+01
 -0.110  0.1578E+00  0.7870E+01
 -0.100  0.1721E+00  0.7872E+01
 -0.090  0.1854E+00  0.7873E+01
 -0.080  0.1975E+00  0.7875E+01
 -0.070  0.2080E+00  0.7877E+01
 -0.060  0.2165E+00  0.7880E+01
 -0.050  0.2228E+00  0.7882E+01
 -0.040  0.2268E+00  0.7884E+01
 -0.030  0.2285E+00  0.7886E+01
 -0.020  0.2280E+00  0.7889E+01
 -0.010  0.2255E+00  0.7891E+01
  0.000  0.2212E+00  0.7893E+01
  0.010  0.2155E+00  0.7895E+01
  0.020  0.2087E+00  0.7897E+01
  0.030  0.2012E+00  0.7899E+01
  0.040  0.1932E+00  0.7901E+01
  0.050  0.1849E+00  0.7903E+01
  0.060  0.1764E+00  0.7905E+01
  0.070  0.1680E+00  0.7907E+01
  0.080  0.1596E+00  0.7908E+01
  0.090  0.1512E+00  0.7910E+01
  0.100  0.1431E+00  0.7911E+01
  0.110  0.1351E+00  0.7912E+01
  0.120  0.1274E+00  0.7914E+01
  0.130  0.1203E+00  0.7915E+01
  0.140  0.1139E+00  0.7916E+01
  0.150  0.1085E+00  0.7917E+01
  0.160  0.1045E+00  0.7918E+01
  0.170  0.1022E+00  0.7919E+01
  0.180  0.1021E+00  0.7920E+01
  0.190  0.1045E+00  0.7921E+01
  0.200  0.1099E+00  0.7922E+01
  0.210  0.1188E+00  0.7924E+01
  0.220  0.1314E+00  0.7925E+01
  0.230  0.1481E+00  0.7926E+01
  0.240  0.1691E+00  0.7928E+01
  0.250  0.1943E+00  0.7930E+01
  0.260  0.2233E+00  0.7932E+01
  0.270  0.2556E+00  0.7935E+01
  0.280  0.2903E+00  0.7938E+01
  0.290  0.3260E+00  0.7941E+01
  0.300  0.3612E+00  0.7945E+01
  0.310  0.3942E+00  0.7949E+01
  0.320  0.4232E+00  0.7953E+01
  0.330  0.4468E+00  0.7957E+01
  0.340  0.4636E+00  0.7962E+01
  0.350  0.4728E+00  0.7967E+01
  0.360  0.4740E+00  0.7971E+01
  0.370  0.4676E+00  0.7976E+01
  0.380  0.4544E+00  0.7981E+01
  0.390  0.4358E+00  0.7985E+01
  0.400  0.4136E+00  0.7989E+01
  0.410  0.3899E+00  0.7993E+01
  0.420  0.3666E+00  0.7997E+01
  0.430  0.3458E+00  0.8000E+01
  0.440  0.3292E+00  0.8003E+01
  0.450  0.3182E+00  0.8007E+01
  0.460  0.3138E+00  0.8010E+01
  0.470  0.3163E+00  0.8013E+01
  0.480  0.3258E+00  0.8016E+01
  0.490  0.3418E+00  0.8020E+01
  0.500  0.3636E+00  0.8023E+01
  0.510  0.3901E+00  0.8027E+01
  0.520  0.4201E+00  0.8031E+01
  0.530  0.4523E+00  0.8036E+01
  0.540  0.4853E+00  0.8041E+01
  0.550  0.5178E+00  0.8046E+01
  0.560  0.5488E+00  0.8051E+01
  0.570  0.5772E+00  0.8057E+01
  0.580  0.6025E+00  0.8063E+01
  0.590  0.6240E+00  0.8069E+01
  0.600  0.6416E+00  0.8076E+01
  0.610  0.6551E+00  0.8082E+01
  0.620  0.6649E+00  0.8089E+01
  0.630  0.6711E+00  0.8096E+01
  0.640  0.6742E+00  0.8102E+01
  0.650  0.6747E+00  0.8109E+01
  0.660  0.6731E+00  0.8116E+01
  0.670  0.6697E+00  0.8123E+01
  0.680  0.6651E+00  0.8129E+01
  0.690  0.6594E+00  0.8136E+01
  0.700  0.6529E+00  0.8142E+01
  0.710  0.6455E+00  0.8149E+01
  0.720  0.6375E+00  0.8155E+01
  0.730  0.6286E+00  0.8161E+01
  0.740  0.6188E+00  0.8168E+01
  0.750  0.6080E+00  0.8174E+01
  0.760  0.5962E+00  0.8180E+01
  0.770  0.5832E+00  0.8186E+01
  0.780  0.5690E+00  0.8191E+01
  0.790  0.5535E+00  0.8197E+01
  0.800  0.5368E+00  0.8202E+01
  0.810  0.5187E+00  0.8207E+01
  0.820  0.4995E+00  0.8212E+01
  0.830  0.4792E+00  0.8217E+01
  0.840  0.4581E+00  0.8222E+01
  0.850  0.4366E+00  0.8226E+01
  0.860  0.4150E+00  0.8230E+01
  0.870  0.3940E+00  0.8234E+01
  0.880  0.3743E+00  0.8238E+01
  0.890  0.3566E+00  0.8241E+01
  0.900  0.3414E+00  0.8245E+01
  0.910  0.3295E+00  0.8248E+01
  0.920  0.3211E+00  0.8251E+01
  0.930  0.3164E+00  0.8255E+01
  0.940  0.3152E+00  0.8258E+01
  0.950  0.3172E+00  0.8261E+01
  0.960  0.3216E+00  0.8264E+01
  0.970  0.3276E+00  0.8267E+01
  0.980  0.3343E+00  0.8271E+01
  0.990  0.3408E+00  0.8274E+01
  1.000  0.3463E+00  0.8278E+01
  1.010  0.3502E+00  0.8281E+01
  1.020  0.3521E+00  0.8285E+01
  1.030  0.3520E+00  0.8288E+01
  1.040  0.3502E+00  0.8292E+01
  1.050  0.3470E+00  0.8295E+01
  1.060  0.3432E+00  0.8299E+01
  1.070  0.3393E+00  0.8302E+01
  1.080  0.3361E+00  0.8305E+01
  1.090  0.3342E+00  0.8309E+01
  1.100  0.3342E+00  0.8312E+01
  1.110  0.3363E+00  0.8315E+01
  1.120  0.3408E+00  0.8319E+01
  1.130  0.3476E+00  0.8322E+01
  1.140  0.3564E+00  0.8326E+01
  1.150  0.3670E+00  0.8329E+01
  1.160  0.3788E+00  0.8333E+01
  1.170  0.3912E+00  0.8337E+01
  1.180  0.4034E+00  0.8341E+01
  1.190  0.4147E+00  0.8345E+01
  1.200  0.4243E+00  0.8350E+01
  1.210  0.4314E+00  0.8354E+01
  1.220  0.4354E+00  0.8358E+01
  1.230  0.4357E+00  0.8363E+01
  1.240  0.4320E+00  0.8367E+01
  1.250  0.4241E+00  0.8371E+01
  1.260  0.4123E+00  0.8375E+01
  1.270  0.3968E+00  0.8379E+01
  1.280  0.3781E+00  0.8383E+01
  1.290  0.3572E+00  0.8387E+01
  1.300  0.3347E+00  0.8390E+01
  1.310  0.3118E+00  0.8393E+01
  1.320  0.2893E+00  0.8396E+01
  1.330  0.2683E+00  0.8399E+01
  1.340  0.2496E+00  0.8401E+01
  1.350  0.2340E+00  0.8403E+01
  1.360  0.2221E+00  0.8406E+01
  1.370  0.2143E+00  0.8408E+01
  1.380  0.2110E+00  0.8410E+01
  1.390  0.2119E+00  0.8412E+01
  1.400  0.2170E+00  0.8414E+01
  1.410  0.2256E+00  0.8416E+01
  1.420  0.2370E+00  0.8419E+01
  1.430  0.2503E+00  0.8421E+01
  1.440  0.2644E+00  0.8424E+01
  1.450  0.2783E+00  0.8427E+01
  1.460  0.2909E+00  0.8430E+01
  1.470  0.3011E+00  0.8433E+01
  1.480  0.3084E+00  0.8436E+01
  1.490  0.3121E+00  0.8439E+01
  1.500  0.3124E+00  0.8442E+01
  1.510  0.3092E+00  0.8445E+01
  1.520  0.3032E+00  0.8448E+01
  1.530  0.2952E+00  0.8451E+01
  1.540  0.2861E+00  0.8454E+01
  1.550  0.2769E+00  0.8457E+01
  1.560  0.2687E+00  0.8459E+01
  1.570  0.2623E+00  0.8462E+01
  1.580  0.2584E+00  0.8465E+01
  1.590  0.2573E+00  0.8467E+01
  1.600  0.2594E+00  0.8470E+01
  1.610  0.2643E+00  0.8472E+01
  1.620  0.2720E+00  0.8475E+01
  1.630  0.2818E+00  0.8478E+01
  1.640  0.2931E+00  0.8481E+01
  1.650  0.3055E+00  0.8484E+01
  1.660  0.3181E+00  0.8487E+01
  1.670  0.3303E+00  0.8490E+01
  1.680  0.3416E+00  0.8494E+01
  1.690  0.3514E+00  0.8497E+01
  1.700  0.3593E+00  0.8501E+01
  1.710  0.3649E+00  0.8505E+01
  1.720  0.3678E+00  0.8508E+01
  1.730  0.3679E+00  0.8512E+01
  1.740  0.3651E+00  0.8516E+01
  1.750  0.3594E+00  0.8519E+01
  1.760  0.3510E+00  0.8523E+01
  1.770  0.3400E+00  0.8526E+01
  1.780  0.3268E+00  0.8529E+01
  1.790  0.3119E+00  0.8533E+01
  1.800  0.2956E+00  0.8535E+01
  1.810  0.2785E+00  0.8538E+01
  1.820  0.2611E+00  0.8541E+01
  1.830  0.2438E+00  0.8543E+01
  1.840  0.2270E+00  0.8546E+01
  1.850  0.2111E+00  0.8548E+01
  1.860  0.1965E+00  0.8550E+01
  1.870  0.1835E+00  0.8552E+01
  1.880  0.1725E+00  0.8553E+01
  1.890  0.1639E+00  0.8555E+01
  1.900  0.1579E+00  0.8556E+01
  1.910  0.1549E+00  0.8558E+01
  1.920  0.1552E+00  0.8560E+01
  1.930  0.1590E+00  0.8561E+01
  1.940  0.1663E+00  0.8563E+01
  1.950  0.1770E+00  0.8565E+01
  1.960  0.1909E+00  0.8566E+01
  1.970  0.2075E+00  0.8569E+01
  1.980  0.2263E+00  0.8571E+01
  1.990  0.2465E+00  0.8573E+01
  2.000  0.2673E+00  0.8576E+01
  2.010  0.2880E+00  0.8579E+01
  2.020  0.3079E+00  0.8582E+01
  2.030  0.3262E+00  0.8585E+01
  2.040  0.3427E+00  0.8589E+01
  2.050  0.3571E+00  0.8592E+01
  2.060  0.3694E+00  0.8596E+01
  2.070  0.3796E+00  0.8600E+01
  2.080  0.3883E+00  0.8604E+01
  2.090  0.3957E+00  0.8608E+01
  2.100  0.4025E+00  0.8612E+01
  2.110  0.4090E+00  0.8616E+01
  2.120  0.4158E+00  0.8620E+01
  2.130  0.4230E+00  0.8624E+01
  2.140  0.4308E+00  0.8628E+01
  2.150  0.4393E+00  0.8633E+01
  2.160  0.4481E+00  0.8637E+01
  2.170  0.4570E+00  0.8642E+01
  2.180  0.4655E+00  0.8646E+01
  2.190  0.4731E+00  0.8651E+01
  2.200  0.4795E+00  0.8656E+01
  2.210  0.4841E+00  0.8661E+01
  2.220  0.4868E+00  0.8666E+01
  2.230  0.4876E+00  0.8671E+01
  2.240  0.4865E+00  0.8675E+01
  2.250  0.4838E+00  0.8680E+01
  2.260  0.4800E+00  0.8685E+01
  2.270  0.4757E+00  0.8690E+01
  2.280  0.4714E+00  0.8695E+01
  2.290  0.4677E+00  0.8699E+01
  2.300  0.4648E+00  0.8704E+01
  2.310  0.4630E+00  0.8708E+01
  2.320  0.4623E+00  0.8713E+01
  2.330  0.4625E+00  0.8718E+01
  2.340  0.4632E+00  0.8722E+01
  2.350  0.4640E+00  0.8727E+01
  2.360  0.4644E+00  0.8732E+01
  2.370  0.4640E+00  0.8736E+01
  2.380  0.4623E+00  0.8741E+01
  2.390  0.4593E+00  0.8745E+01
  2.400  0.4546E+00  0.8750E+01
  2.410  0.4485E+00  0.8755E+01
  2.420  0.4411E+00  0.8759E+01
  2.430  0.4325E+00  0.8763E+01
  2.440  0.4232E+00  0.8767E+01
  2.450  0.4134E+00  0.8772E+01
  2.460  0.4036E+00  0.8776E+01
  2.470  0.3943E+00  0.8780E+01
  2.480  0.3857E+00  0.8783E+01
  2.490  0.3784E+00  0.8787E+01
  2.500  0.3728E+00  0.8791E+01
  2.510  0.3693E+00  0.8795E+01
  2.520  0.3685E+00  0.8798E+01
  2.530  0.3706E+00  0.8802E+01
  2.540  0.3758E+00  0.8806E+01
  2.550  0.3844E+00  0.8810E+01
  2.560  0.3961E+00  0.8814E+01
  2.570  0.4107E+00  0.8818E+01
  2.580  0.4279E+00  0.8822E+01
  2.590  0.4469E+00  0.8826E+01
  2.600  0.4671E+00  0.8831E+01
  2.610  0.4877E+00  0.8836E+01
  2.620  0.5077E+00  0.8841E+01
  2.630  0.5264E+00  0.8846E+01
  2.640  0.5429E+00  0.8852E+01
  2.650  0.5565E+00  0.8857E+01
  2.660  0.5664E+00  0.8863E+01
  2.670  0.5724E+00  0.8869E+01
  2.680  0.5740E+00  0.8874E+01
  2.690  0.5712E+00  0.8880E+01
  2.700  0.5642E+00  0.8886E+01
  2.710  0.5532E+00  0.8891E+01
  2.720  0.5388E+00  0.8897E+01
  2.730  0.5220E+00  0.8902E+01
  2.740  0.5036E+00  0.8907E+01
  2.750  0.4846E+00  0.8912E+01
  2.760  0.4661E+00  0.8917E+01
  2.770  0.4491E+00  0.8921E+01
  2.780  0.4341E+00  0.8925E+01
  2.790  0.4216E+00  0.8930E+01
  2.800  0.4118E+00  0.8934E+01
  2.810  0.4045E+00  0.8938E+01
  2.820  0.3994E+00  0.8942E+01
  2.830  0.3958E+00  0.8946E+01
  2.840  0.3932E+00  0.8950E+01
  2.850  0.3909E+00  0.8954E+01
  2.860  0.3886E+00  0.8957E+01
  2.870  0.3859E+00  0.8961E+01
  2.880  0.3829E+00  0.8965E+01
  2.890  0.3798E+00  0.8969E+01
  2.900  0.3769E+00  0.8973E+01
  2.910  0.3747E+00  0.8976E+01
  2.920  0.3738E+00  0.8980E+01
  2.930  0.3746E+00  0.8984E+01
  2.940  0.3775E+00  0.8988E+01
  2.950  0.3826E+00  0.8991E+01
  2.960  0.3899E+00  0.8995E+01
  2.970  0.3992E+00  0.8999E+01
  2.980  0.4100E+00  0.9003E+01
  2.990  0.4218E+00  0.9008E+01
  3.000  0.4339E+00  0.9012E+01
  3.010  0.4455E+00  0.9016E+01
  3.020  0.4560E+00  0.9021E+01
  3.030  0.4647E+00  0.9026E+01
  3.040  0.4711E+00  0.9030E+01
  3.050  0.4747E+00  0.9035E+01
  3.060  0.4754E+00  0.9040E+01
  3.070  0.4732E+00  0.9045E+01
  3.080  0.4683E+00  0.9049E+01
  3.090  0.4613E+00  0.9054E+01
  3.100  0.4529E+00  0.9058E+01
  3.110  0.4438E+00  0.9063E+01
  3.120  0.4351E+00  0.9067E+01
  3.130  0.4277E+00  0.9072E+01
  3.140  0.4223E+00  0.9076E+01
  3.150  0.4199E+00  0.9080E+01
  3.160  0.4209E+00  0.9084E+01
  3.170  0.4257E+00  0.9088E+01
  3.180  0.4345E+00  0.9093E+01
  3.190  0.4470E+00  0.9097E+01
  3.200  0.4629E+00  0.9102E+01
  3.210  0.4818E+00  0.9107E+01
  3.220  0.5028E+00  0.9112E+01
  3.230  0.5253E+00  0.9117E+01
  3.240  0.5486E+00  0.9122E+01
  3.250  0.5718E+00  0.9128E+01
  3.260  0.5944E+00  0.9134E+01
  3.270  0.6158E+00  0.9140E+01
  3.280  0.6354E+00  0.9147E+01
  3.290  0.6530E+00  0.9153E+01
  3.300  0.6682E+00  0.9160E+01
  3.310  0.6807E+00  0.9167E+01
  3.320  0.6903E+00  0.9174E+01
  3.330  0.6968E+00  0.9181E+01
  3.340  0.7001E+00  0.9188E+01
  3.350  0.7000E+00  0.9195E+01
  3.360  0.6966E+00  0.9201E+01
  3.370  0.6901E+00  0.9208E+01
  3.380  0.6807E+00  0.9215E+01
  3.390  0.6686E+00  0.9222E+01
  3.400  0.6545E+00  0.9228E+01
  3.410  0.6389E+00  0.9235E+01
  3.420  0.6224E+00  0.9241E+01
  3.430  0.6054E+00  0.9247E+01
  3.440  0.5888E+00  0.9253E+01
  3.450  0.5728E+00  0.9259E+01
  3.460  0.5580E+00  0.9264E+01
  3.470  0.5447E+00  0.9270E+01
  3.480  0.5334E+00  0.9275E+01
  3.490  0.5243E+00  0.9280E+01
  3.500  0.5178E+00  0.9285E+01
  3.510  0.5144E+00  0.9291E+01
  3.520  0.5143E+00  0.9296E+01
  3.530  0.5178E+00  0.9301E+01
  3.540  0.5253E+00  0.9306E+01
  3.550  0.5368E+00  0.9312E+01
  3.560  0.5523E+00  0.9317E+01
  3.570  0.5715E+00  0.9323E+01
  3.580  0.5937E+00  0.9329E+01
  3.590  0.6183E+00  0.9335E+01
  3.600  0.6441E+00  0.9341E+01
  3.610  0.6701E+00  0.9348E+01
  3.620  0.6949E+00  0.9355E+01
  3.630  0.7173E+00  0.9362E+01
  3.640  0.7362E+00  0.9370E+01
  3.650  0.7508E+00  0.9377E+01
  3.660  0.7606E+00  0.9385E+01
  3.670  0.7653E+00  0.9392E+01
  3.680  0.7651E+00  0.9400E+01
  3.690  0.7605E+00  0.9408E+01
  3.700  0.7522E+00  0.9415E+01
  3.710  0.7411E+00  0.9423E+01
  3.720  0.7280E+00  0.9430E+01
  3.730  0.7138E+00  0.9437E+01
  3.740  0.6993E+00  0.9444E+01
  3.750  0.6849E+00  0.9451E+01
  3.760  0.6710E+00  0.9457E+01
  3.770  0.6578E+00  0.9464E+01
  3.780  0.6454E+00  0.9471E+01
  3.790  0.6338E+00  0.9477E+01
  3.800  0.6229E+00  0.9483E+01
  3.810  0.6130E+00  0.9489E+01
  3.820  0.6041E+00  0.9495E+01
  3.830  0.5967E+00  0.9501E+01
  3.840  0.5911E+00  0.9507E+01
  3.850  0.5878E+00  0.9513E+01
  3.860  0.5871E+00  0.9519E+01
  3.870  0.5894E+00  0.9525E+01
  3.880  0.5950E+00  0.9531E+01
  3.890  0.6037E+00  0.9537E+01
  3.900  0.6155E+00  0.9543E+01
  3.910  0.6301E+00  0.9549E+01
  3.920  0.6471E+00  0.9556E+01
  3.930  0.6660E+00  0.9562E+01
  3.940  0.6860E+00  0.9569E+01
  3.950  0.7067E+00  0.9576E+01
  3.960  0.7274E+00  0.9584E+01
  3.970  0.7475E+00  0.9591E+01
  3.980  0.7664E+00  0.9599E+01
  3.990  0.7835E+00  0.9607E+01
  4.000  0.7984E+00  0.9615E+01
  4.010  0.8106E+00  0.9623E+01
  4.020  0.8199E+00  0.9631E+01
  4.030  0.8261E+00  0.9639E+01
  4.040  0.8290E+00  0.9647E+01
  4.050  0.8288E+00  0.9656E+01
  4.060  0.8255E+00  0.9664E+01
  4.070  0.8195E+00  0.9672E+01
  4.080  0.8111E+00  0.9680E+01
  4.090  0.8009E+00  0.9688E+01
  4.100  0.7895E+00  0.9696E+01
  4.110  0.7774E+00  0.9704E+01
  4.120  0.7655E+00  0.9712E+01
  4.130  0.7544E+00  0.9719E+01
  4.140  0.7451E+00  0.9727E+01
  4.150  0.7383E+00  0.9734E+01
  4.160  0.7347E+00  0.9741E+01
  4.170  0.7351E+00  0.9749E+01
  4.180  0.7400E+00  0.9756E+01
  4.190  0.7495E+00  0.9764E+01
  4.200  0.7639E+00  0.9771E+01
  4.210  0.7828E+00  0.9779E+01
  4.220  0.8057E+00  0.9787E+01
  4.230  0.8317E+00  0.9795E+01
  4.240  0.8599E+00  0.9804E+01
  4.250  0.8890E+00  0.9813E+01
  4.260  0.9178E+00  0.9822E+01
  4.270  0.9451E+00  0.9831E+01
  4.280  0.9696E+00  0.9841E+01
  4.290  0.9904E+00  0.9851E+01
  4.300  0.1007E+01  0.9861E+01
  4.310  0.1018E+01  0.9871E+01
  4.320  0.1023E+01  0.9882E+01
  4.330  0.1023E+01  0.9892E+01
  4.340  0.1018E+01  0.9902E+01
  4.350  0.1007E+01  0.9912E+01
  4.360  0.9914E+00  0.9922E+01
  4.370  0.9716E+00  0.9932E+01
  4.380  0.9485E+00  0.9941E+01
  4.390  0.9229E+00  0.9950E+01
  4.400  0.8960E+00  0.9959E+01
  4.410  0.8689E+00  0.9968E+01
  4.420  0.8426E+00  0.9976E+01
  4.430  0.8184E+00  0.9985E+01
  4.440  0.7970E+00  0.9993E+01
  4.450  0.7793E+00  0.1000E+02
  4.460  0.7658E+00  0.1001E+02
  4.470  0.7566E+00  0.1002E+02
  4.480  0.7517E+00  0.1002E+02
  4.490  0.7506E+00  0.1003E+02
  4.500  0.7527E+00  0.1004E+02
  4.510  0.7570E+00  0.1005E+02
  4.520  0.7625E+00  0.1005E+02
  4.530  0.7683E+00  0.1006E+02
  4.540  0.7732E+00  0.1007E+02
  4.550  0.7767E+00  0.1008E+02
  4.560  0.7782E+00  0.1008E+02
  4.570  0.7776E+00  0.1009E+02
  4.580  0.7751E+00  0.1010E+02
  4.590  0.7713E+00  0.1011E+02
  4.600  0.7670E+00  0.1012E+02
  4.610  0.7635E+00  0.1012E+02
  4.620  0.7619E+00  0.1013E+02
  4.630  0.7634E+00  0.1014E+02
  4.640  0.7690E+00  0.1015E+02
  4.650  0.7795E+00  0.1015E+02
  4.660  0.7951E+00  0.1016E+02
  4.670  0.8157E+00  0.1017E+02
  4.680  0.8406E+00  0.1018E+02
  4.690  0.8686E+00  0.1019E+02
  4.700  0.8982E+00  0.1020E+02
  4.710  0.9275E+00  0.1021E+02
  4.720  0.9547E+00  0.1021E+02
  4.730  0.9778E+00  0.1022E+02
  4.740  0.9952E+00  0.1023E+02
  4.750  0.1006E+01  0.1024E+02
  4.760  0.1009E+01  0.1025E+02
  4.770  0.1004E+01  0.1026E+02
  4.780  0.9919E+00  0.1027E+02
  4.790  0.9735E+00  0.1028E+02
  4.800  0.9502E+00  0.1029E+02
  4.810  0.9236E+00  0.1030E+02
  4.820  0.8953E+00  0.1031E+02
  4.830  0.8670E+00  0.1032E+02
  4.840  0.8401E+00  0.1033E+02
  4.850  0.8157E+00  0.1034E+02
  4.860  0.7947E+00  0.1035E+02
  4.870  0.7774E+00  0.1035E+02
  4.880  0.7641E+00  0.1036E+02
  4.890  0.7547E+00  0.1037E+02
  4.900  0.7490E+00  0.1038E+02
  4.910  0.7468E+00  0.1038E+02
  4.920  0.7478E+00  0.1039E+02
  4.930  0.7518E+00  0.1040E+02
  4.940  0.7585E+00  0.1041E+02
  4.950  0.7679E+00  0.1041E+02
  4.960  0.7797E+00  0.1042E+02
  4.970  0.7938E+00  0.1043E+02
  4.980  0.8100E+00  0.1044E+02
  4.990  0.8278E+00  0.1045E+02
  5.000  0.8468E+00  0.1045E+02
  5.010  0.8661E+00  0.1046E+02
  5.020  0.8851E+00  0.1047E+02
  5.030  0.9026E+00  0.1048E+02
  5.040  0.9177E+00  0.1049E+02
  5.050  0.9295E+00  0.1050E+02
  5.060  0.9371E+00  0.1051E+02
  5.070  0.9400E+00  0.1052E+02
  5.080  0.9381E+00  0.1053E+02
  5.090  0.9315E+00  0.1054E+02
  5.100  0.9208E+00  0.1055E+02
  5.110  0.9070E+00  0.1055E+02
  5.120  0.8912E+00  0.1056E+02
  5.130  0.8747E+00  0.1057E+02
  5.140  0.8589E+00  0.1058E+02
  5.150  0.8448E+00  0.1059E+02
  5.160  0.8333E+00  0.1060E+02
  5.170  0.8250E+00  0.1061E+02
  5.180  0.8200E+00  0.1061E+02
  5.190  0.8180E+00  0.1062E+02
  5.200  0.8183E+00  0.1063E+02
  5.210  0.8203E+00  0.1064E+02
  5.220  0.8231E+00  0.1065E+02
  5.230  0.8257E+00  0.1066E+02
  5.240  0.8276E+00  0.1066E+02
  5.250  0.8282E+00  0.1067E+02
  5.260  0.8274E+00  0.1068E+02
  5.270  0.8255E+00  0.1069E+02
  5.280  0.8226E+00  0.1070E+02
  5.290  0.8195E+00  0.1070E+02
  5.300  0.8168E+00  0.1071E+02
  5.310  0.8151E+00  0.1072E+02
  5.320  0.8150E+00  0.1073E+02
  5.330  0.8169E+00  0.1074E+02
  5.340  0.8210E+00  0.1075E+02
  5.350  0.8275E+00  0.1075E+02
  5.360  0.8363E+00  0.1076E+02
  5.370  0.8472E+00  0.1077E+02
  5.380  0.8599E+00  0.1078E+02
  5.390  0.8741E+00  0.1079E+02
  5.400  0.8894E+00  0.1080E+02
  5.410  0.9054E+00  0.1081E+02
  5.420  0.9214E+00  0.1082E+02
  5.430  0.9369E+00  0.1082E+02
  5.440  0.9510E+00  0.1083E+02
  5.450  0.9628E+00  0.1084E+02
  5.460  0.9716E+00  0.1085E+02
  5.470  0.9763E+00  0.1086E+02
  5.480  0.9760E+00  0.1087E+02
  5.490  0.9702E+00  0.1088E+02
  5.500  0.9583E+00  0.1089E+02
  5.510  0.9402E+00  0.1090E+02
  5.520  0.9159E+00  0.1091E+02
  5.530  0.8860E+00  0.1092E+02
  5.540  0.8512E+00  0.1093E+02
  5.550  0.8124E+00  0.1094E+02
  5.560  0.7708E+00  0.1094E+02
  5.570  0.7275E+00  0.1095E+02
  5.580  0.6837E+00  0.1096E+02
  5.590  0.6406E+00  0.1096E+02
  5.600  0.5993E+00  0.1097E+02
  5.610  0.5607E+00  0.1098E+02
  5.620  0.5257E+00  0.1098E+02
  5.630  0.4952E+00  0.1099E+02
  5.640  0.4697E+00  0.1099E+02
  5.650  0.4499E+00  0.1100E+02
  5.660  0.4364E+00  0.1100E+02
  5.670  0.4295E+00  0.1100E+02
  5.680  0.4295E+00  0.1101E+02
  5.690  0.4367E+00  0.1101E+02
  5.700  0.4510E+00  0.1102E+02
  5.710  0.4723E+00  0.1102E+02
  5.720  0.5001E+00  0.1103E+02
  5.730  0.5339E+00  0.1103E+02
  5.740  0.5728E+00  0.1104E+02
  5.750  0.6156E+00  0.1104E+02
  5.760  0.6612E+00  0.1105E+02
  5.770  0.7080E+00  0.1106E+02
  5.780  0.7547E+00  0.1107E+02
  5.790  0.7998E+00  0.1107E+02
  5.800  0.8418E+00  0.1108E+02
  5.810  0.8798E+00  0.1109E+02
  5.820  0.9127E+00  0.1110E+02
  5.830  0.9400E+00  0.1111E+02
  5.840  0.9615E+00  0.1112E+02
  5.850  0.9772E+00  0.1113E+02
  5.860  0.9876E+00  0.1114E+02
  5.870  0.9933E+00  0.1115E+02
  5.880  0.9951E+00  0.1116E+02
  5.890  0.9938E+00  0.1117E+02
  5.900  0.9903E+00  0.1118E+02
  5.910  0.9854E+00  0.1119E+02
  5.920  0.9795E+00  0.1120E+02
  5.930  0.9733E+00  0.1121E+02
  5.940  0.9668E+00  0.1122E+02
  5.950  0.9604E+00  0.1123E+02
  5.960  0.9538E+00  0.1124E+02
  5.970  0.9470E+00  0.1125E+02
  5.980  0.9396E+00  0.1126E+02
  5.990  0.9315E+00  0.1126E+02
  6.000  0.9225E+00  0.1127E+02
  6.010  0.9123E+00  0.1128E+02
  6.020  0.9009E+00  0.1129E+02
  6.030  0.8883E+00  0.1130E+02
  6.040  0.8749E+00  0.1131E+02
  6.050  0.8608E+00  0.1132E+02
  6.060  0.8467E+00  0.1133E+02
  6.070  0.8330E+00  0.1133E+02
  6.080  0.8206E+00  0.1134E+02
  6.090  0.8101E+00  0.1135E+02
  6.100  0.8023E+00  0.1136E+02
  6.110  0.7978E+00  0.1137E+02
  6.120  0.7969E+00  0.1138E+02
  6.130  0.8000E+00  0.1138E+02
  6.140  0.8068E+00  0.1139E+02
  6.150  0.8172E+00  0.1140E+02
  6.160  0.8303E+00  0.1141E+02
  6.170  0.8452E+00  0.1142E+02
  6.180  0.8610E+00  0.1142E+02
  6.190  0.8764E+00  0.1143E+02
  6.200  0.8904E+00  0.1144E+02
  6.210  0.9020E+00  0.1145E+02
  6.220  0.9105E+00  0.1146E+02
  6.230  0.9155E+00  0.1147E+02
  6.240  0.9170E+00  0.1148E+02
  6.250  0.9155E+00  0.1149E+02
  6.260  0.9116E+00  0.1150E+02
  6.270  0.9064E+00  0.1151E+02
  6.280  0.9012E+00  0.1152E+02
  6.290  0.8974E+00  0.1152E+02
  6.300  0.8963E+00  0.1153E+02
  6.310  0.8992E+00  0.1154E+02
  6.320  0.9071E+00  0.1155E+02
  6.330  0.9208E+00  0.1156E+02
  6.340  0.9407E+00  0.1157E+02
  6.350  0.9668E+00  0.1158E+02
  6.360  0.9986E+00  0.1159E+02
  6.370  0.1036E+01  0.1160E+02
  6.380  0.1076E+01  0.1161E+02
  6.390  0.1120E+01  0.1162E+02
  6.400  0.1164E+01  0.1163E+02
  6.410  0.1208E+01  0.1165E+02
  6.420  0.1250E+01  0.1166E+02
  6.430  0.1288E+01  0.1167E+02
  6.440  0.1321E+01  0.1168E+02
  6.450  0.1349E+01  0.1170E+02
  6.460  0.1371E+01  0.1171E+02
  6.470  0.1387E+01  0.1173E+02
  6.480  0.1398E+01  0.1174E+02
  6.490  0.1404E+01  0.1175E+02
  6.500  0.1407E+01  0.1177E+02
  6.510  0.1408E+01  0.1178E+02
  6.520  0.1408E+01  0.1180E+02
  6.530  0.1409E+01  0.1181E+02
  6.540  0.1413E+01  0.1182E+02
  6.550  0.1419E+01  0.1184E+02
  6.560  0.1429E+01  0.1185E+02
  6.570  0.1443E+01  0.1187E+02
  6.580  0.1460E+01  0.1188E+02
  6.590  0.1479E+01  0.1190E+02
  6.600  0.1499E+01  0.1191E+02
  6.610  0.1519E+01  0.1193E+02
  6.620  0.1537E+01  0.1194E+02
  6.630  0.1551E+01  0.1196E+02
  6.640  0.1560E+01  0.1197E+02
  6.650  0.1562E+01  0.1199E+02
  6.660  0.1557E+01  0.1200E+02
  6.670  0.1543E+01  0.1202E+02
  6.680  0.1521E+01  0.1203E+02
  6.690  0.1491E+01  0.1205E+02
  6.700  0.1453E+01  0.1206E+02
  6.710  0.1408E+01  0.1208E+02
  6.720  0.1357E+01  0.1209E+02
  6.730  0.1303E+01  0.1210E+02
  6.740  0.1246E+01  0.1212E+02
  6.750  0.1190E+01  0.1213E+02
  6.760  0.1135E+01  0.1214E+02
  6.770  0.1085E+01  0.1215E+02
  6.780  0.1041E+01  0.1216E+02
  6.790  0.1005E+01  0.1217E+02
  6.800  0.9788E+00  0.1218E+02
  6.810  0.9633E+00  0.1219E+02
  6.820  0.9595E+00  0.1220E+02
  6.830  0.9679E+00  0.1221E+02
  6.840  0.9884E+00  0.1222E+02
  6.850  0.1021E+01  0.1223E+02
  6.860  0.1064E+01  0.1224E+02
  6.870  0.1117E+01  0.1225E+02
  6.880  0.1178E+01  0.1226E+02
  6.890  0.1245E+01  0.1228E+02
  6.900  0.1316E+01  0.1229E+02
  6.910  0.1387E+01  0.1230E+02
  6.920  0.1457E+01  0.1232E+02
  6.930  0.1523E+01  0.1233E+02
  6.940  0.1581E+01  0.1235E+02
  6.950  0.1630E+01  0.1237E+02
  6.960  0.1668E+01  0.1238E+02
  6.970  0.1694E+01  0.1240E+02
  6.980  0.1707E+01  0.1242E+02
  6.990  0.1709E+01  0.1243E+02
  7.000  0.1699E+01  0.1245E+02
  7.010  0.1682E+01  0.1247E+02
  7.020  0.1658E+01  0.1248E+02
  7.030  0.1631E+01  0.1250E+02
  7.040  0.1604E+01  0.1252E+02
  7.050  0.1581E+01  0.1253E+02
  7.060  0.1563E+01  0.1255E+02
  7.070  0.1553E+01  0.1256E+02
  7.080  0.1552E+01  0.1258E+02
  7.090  0.1561E+01  0.1259E+02
  7.100  0.1581E+01  0.1261E+02
  7.110  0.1610E+01  0.1263E+02
  7.120  0.1647E+01  0.1264E+02
  7.130  0.1692E+01  0.1266E+02
  7.140  0.1742E+01  0.1268E+02
  7.150  0.1795E+01  0.1269E+02
  7.160  0.1850E+01  0.1271E+02
  7.170  0.1905E+01  0.1273E+02
  7.180  0.1959E+01  0.1275E+02
  7.190  0.2011E+01  0.1277E+02
  7.200  0.2058E+01  0.1279E+02
  7.210  0.2102E+01  0.1281E+02
  7.220  0.2141E+01  0.1283E+02
  7.230  0.2174E+01  0.1286E+02
  7.240  0.2202E+01  0.1288E+02
  7.250  0.2225E+01  0.1290E+02
  7.260  0.2243E+01  0.1292E+02
  7.270  0.2255E+01  0.1295E+02
  7.280  0.2262E+01  0.1297E+02
  7.290  0.2266E+01  0.1299E+02
  7.300  0.2267E+01  0.1301E+02
  7.310  0.2265E+01  0.1304E+02
  7.320  0.2263E+01  0.1306E+02
  7.330  0.2259E+01  0.1308E+02
  7.340  0.2256E+01  0.1310E+02
  7.350  0.2252E+01  0.1313E+02
  7.360  0.2249E+01  0.1315E+02
  7.370  0.2246E+01  0.1317E+02
  7.380  0.2241E+01  0.1319E+02
  7.390  0.2235E+01  0.1322E+02
  7.400  0.2227E+01  0.1324E+02
  7.410  0.2216E+01  0.1326E+02
  7.420  0.2201E+01  0.1328E+02
  7.430  0.2184E+01  0.1330E+02
  7.440  0.2164E+01  0.1333E+02
  7.450  0.2144E+01  0.1335E+02
  7.460  0.2124E+01  0.1337E+02
  7.470  0.2105E+01  0.1339E+02
  7.480  0.2089E+01  0.1341E+02
  7.490  0.2078E+01  0.1343E+02
  7.500  0.2071E+01  0.1345E+02
  7.510  0.2069E+01  0.1347E+02
  7.520  0.2070E+01  0.1349E+02
  7.530  0.2074E+01  0.1351E+02
  7.540  0.2078E+01  0.1354E+02
  7.550  0.2082E+01  0.1356E+02
  7.560  0.2081E+01  0.1358E+02
  7.570  0.2075E+01  0.1360E+02
  7.580  0.2061E+01  0.1362E+02
  7.590  0.2039E+01  0.1364E+02
  7.600  0.2009E+01  0.1366E+02
  7.610  0.1969E+01  0.1368E+02
  7.620  0.1921E+01  0.1370E+02
  7.630  0.1866E+01  0.1372E+02
  7.640  0.1807E+01  0.1373E+02
  7.650  0.1744E+01  0.1375E+02
  7.660  0.1681E+01  0.1377E+02
  7.670  0.1620E+01  0.1379E+02
  7.680  0.1562E+01  0.1380E+02
  7.690  0.1510E+01  0.1382E+02
  7.700  0.1464E+01  0.1383E+02
  7.710  0.1427E+01  0.1384E+02
  7.720  0.1399E+01  0.1386E+02
  7.730  0.1379E+01  0.1387E+02
  7.740  0.1368E+01  0.1389E+02
  7.750  0.1365E+01  0.1390E+02
  7.760  0.1370E+01  0.1391E+02
  7.770  0.1382E+01  0.1393E+02
  7.780  0.1399E+01  0.1394E+02
  7.790  0.1421E+01  0.1396E+02
  7.800  0.1448E+01  0.1397E+02
  7.810  0.1479E+01  0.1398E+02
  7.820  0.1512E+01  0.1400E+02
  7.830  0.1548E+01  0.1402E+02
  7.840  0.1585E+01  0.1403E+02
  7.850  0.1623E+01  0.1405E+02
  7.860  0.1661E+01  0.1406E+02
  7.870  0.1698E+01  0.1408E+02
  7.880  0.1733E+01  0.1410E+02
  7.890  0.1764E+01  0.1412E+02
  7.900  0.1791E+01  0.1413E+02
  7.910  0.1813E+01  0.1415E+02
  7.920  0.1829E+01  0.1417E+02
  7.930  0.1839E+01  0.1419E+02
  7.940  0.1842E+01  0.1421E+02
  7.950  0.1839E+01  0.1423E+02
  7.960  0.1828E+01  0.1424E+02
  7.970  0.1811E+01  0.1426E+02
  7.980  0.1789E+01  0.1428E+02
  7.990  0.1761E+01  0.1430E+02
  8.000  0.1729E+01  0.1431E+02
  8.010  0.1694E+01  0.1433E+02
  8.020  0.1657E+01  0.1435E+02
  8.030  0.1618E+01  0.1436E+02
  8.040  0.1580E+01  0.1438E+02
  8.050  0.1542E+01  0.1440E+02
  8.060  0.1506E+01  0.1441E+02
  8.070  0.1472E+01  0.1443E+02
  8.080  0.1441E+01  0.1444E+02
  8.090  0.1413E+01  0.1445E+02
  8.100  0.1389E+01  0.1447E+02
  8.110  0.1369E+01  0.1448E+02
  8.120  0.1353E+01  0.1450E+02
  8.130  0.1342E+01  0.1451E+02
  8.140  0.1336E+01  0.1452E+02
  8.150  0.1334E+01  0.1454E+02
  8.160  0.1336E+01  0.1455E+02
  8.170  0.1343E+01  0.1456E+02
  8.180  0.1353E+01  0.1458E+02
  8.190  0.1365E+01  0.1459E+02
  8.200  0.1379E+01  0.1460E+02
  8.210  0.1394E+01  0.1462E+02
  8.220  0.1409E+01  0.1463E+02
  8.230  0.1424E+01  0.1465E+02
  8.240  0.1437E+01  0.1466E+02
  8.250  0.1449E+01  0.1467E+02
  8.260  0.1460E+01  0.1469E+02
  8.270  0.1470E+01  0.1470E+02
  8.280  0.1480E+01  0.1472E+02
  8.290  0.1491E+01  0.1473E+02
  8.300  0.1504E+01  0.1475E+02
  8.310  0.1518E+01  0.1476E+02
  8.320  0.1535E+01  0.1478E+02
  8.330  0.1553E+01  0.1479E+02
  8.340  0.1573E+01  0.1481E+02
  8.350  0.1592E+01  0.1483E+02
  8.360  0.1611E+01  0.1484E+02
  8.370  0.1628E+01  0.1486E+02
  8.380  0.1641E+01  0.1487E+02
  8.390  0.1650E+01  0.1489E+02
  8.400  0.1653E+01  0.1491E+02
  8.410  0.1651E+01  0.1492E+02
  8.420  0.1643E+01  0.1494E+02
  8.430  0.1631E+01  0.1496E+02
  8.440  0.1615E+01  0.1497E+02
  8.450  0.1596E+01  0.1499E+02
  8.460  0.1577E+01  0.1500E+02
  8.470  0.1558E+01  0.1502E+02
  8.480  0.1541E+01  0.1504E+02
  8.490  0.1529E+01  0.1505E+02
  8.500  0.1522E+01  0.1507E+02
  8.510  0.1522E+01  0.1508E+02
  8.520  0.1529E+01  0.1510E+02
  8.530  0.1543E+01  0.1511E+02
  8.540  0.1565E+01  0.1513E+02
  8.550  0.1593E+01  0.1514E+02
  8.560  0.1626E+01  0.1516E+02
  8.570  0.1661E+01  0.1518E+02
  8.580  0.1696E+01  0.1519E+02
  8.590  0.1730E+01  0.1521E+02
  8.600  0.1759E+01  0.1523E+02
  8.610  0.1782E+01  0.1525E+02
  8.620  0.1798E+01  0.1526E+02
  8.630  0.1806E+01  0.1528E+02
  8.640  0.1806E+01  0.1530E+02
  8.650  0.1798E+01  0.1532E+02
  8.660  0.1783E+01  0.1534E+02
  8.670  0.1764E+01  0.1535E+02
  8.680  0.1742E+01  0.1537E+02
  8.690  0.1719E+01  0.1539E+02
  8.700  0.1697E+01  0.1541E+02
  8.710  0.1677E+01  0.1542E+02
  8.720  0.1662E+01  0.1544E+02
  8.730  0.1650E+01  0.1546E+02
  8.740  0.1644E+01  0.1547E+02
  8.750  0.1641E+01  0.1549E+02
  8.760  0.1642E+01  0.1550E+02
  8.770  0.1645E+01  0.1552E+02
  8.780  0.1649E+01  0.1554E+02
  8.790  0.1652E+01  0.1555E+02
  8.800  0.1654E+01  0.1557E+02
  8.810  0.1653E+01  0.1559E+02
  8.820  0.1649E+01  0.1560E+02
  8.830  0.1642E+01  0.1562E+02
  8.840  0.1633E+01  0.1564E+02
  8.850  0.1623E+01  0.1565E+02
  8.860  0.1613E+01  0.1567E+02
  8.870  0.1606E+01  0.1568E+02
  8.880  0.1602E+01  0.1570E+02
  8.890  0.1602E+01  0.1572E+02
  8.900  0.1607E+01  0.1573E+02
  8.910  0.1617E+01  0.1575E+02
  8.920  0.1631E+01  0.1577E+02
  8.930  0.1648E+01  0.1578E+02
  8.940  0.1666E+01  0.1580E+02
  8.950  0.1683E+01  0.1582E+02
  8.960  0.1697E+01  0.1583E+02
  8.970  0.1707E+01  0.1585E+02
  8.980  0.1711E+01  0.1587E+02
  8.990  0.1709E+01  0.1588E+02
  9.000  0.1701E+01  0.1590E+02
  9.010  0.1688E+01  0.1592E+02
  9.020  0.1670E+01  0.1593E+02
  9.030  0.1648E+01  0.1595E+02
  9.040  0.1625E+01  0.1597E+02
  9.050  0.1601E+01  0.1598E+02
  9.060  0.1578E+01  0.1600E+02
  9.070  0.1557E+01  0.1601E+02
  9.080  0.1538E+01  0.1603E+02
  9.090  0.1523E+01  0.1604E+02
  9.100  0.1512E+01  0.1606E+02
  9.110  0.1505E+01  0.1608E+02
  9.120  0.1501E+01  0.1609E+02
  9.130  0.1502E+01  0.1611E+02
  9.140  0.1506E+01  0.1612E+02
  9.150  0.1514E+01  0.1614E+02
  9.160  0.1525E+01  0.1615E+02
  9.170  0.1538E+01  0.1617E+02
  9.180  0.1552E+01  0.1618E+02
  9.190  0.1566E+01  0.1620E+02
  9.200  0.1581E+01  0.1621E+02
  9.210  0.1595E+01  0.1623E+02
  9.220  0.1610E+01  0.1624E+02
  9.230  0.1624E+01  0.1626E+02
  9.240  0.1640E+01  0.1628E+02
  9.250  0.1657E+01  0.1629E+02
  9.260  0.1678E+01  0.1631E+02
  9.270  0.1702E+01  0.1633E+02
  9.280  0.1731E+01  0.1635E+02
  9.290  0.1764E+01  0.1636E+02
  9.300  0.1801E+01  0.1638E+02
  9.310  0.1840E+01  0.1640E+02
  9.320  0.1881E+01  0.1642E+02
  9.330  0.1921E+01  0.1644E+02
  9.340  0.1958E+01  0.1646E+02
  9.350  0.1989E+01  0.1648E+02
  9.360  0.2012E+01  0.1650E+02
  9.370  0.2026E+01  0.1652E+02
  9.380  0.2030E+01  0.1654E+02
  9.390  0.2022E+01  0.1656E+02
  9.400  0.2003E+01  0.1658E+02
  9.410  0.1974E+01  0.1660E+02
  9.420  0.1935E+01  0.1662E+02
  9.430  0.1889E+01  0.1664E+02
  9.440  0.1837E+01  0.1665E+02
  9.450  0.1783E+01  0.1667E+02
  9.460  0.1729E+01  0.1669E+02
  9.470  0.1677E+01  0.1671E+02
  9.480  0.1630E+01  0.1672E+02
  9.490  0.1591E+01  0.1674E+02
  9.500  0.1561E+01  0.1675E+02
  9.510  0.1541E+01  0.1677E+02
  9.520  0.1532E+01  0.1678E+02
  9.530  0.1535E+01  0.1680E+02
  9.540  0.1547E+01  0.1682E+02
  9.550  0.1570E+01  0.1683E+02
  9.560  0.1599E+01  0.1685E+02
  9.570  0.1635E+01  0.1686E+02
  9.580  0.1675E+01  0.1688E+02
  9.590  0.1717E+01  0.1690E+02
  9.600  0.1760E+01  0.1691E+02
  9.610  0.1802E+01  0.1693E+02
  9.620  0.1843E+01  0.1695E+02
  9.630  0.1882E+01  0.1697E+02
  9.640  0.1919E+01  0.1699E+02
  9.650  0.1953E+01  0.1701E+02
  9.660  0.1985E+01  0.1703E+02
  9.670  0.2015E+01  0.1705E+02
  9.680  0.2041E+01  0.1707E+02
  9.690  0.2064E+01  0.1709E+02
  9.700  0.2083E+01  0.1711E+02
  9.710  0.2098E+01  0.1713E+02
  9.720  0.2107E+01  0.1715E+02
  9.730  0.2111E+01  0.1717E+02
  9.740  0.2109E+01  0.1720E+02
  9.750  0.2101E+01  0.1722E+02
  9.760  0.2088E+01  0.1724E+02
  9.770  0.2069E+01  0.1726E+02
  9.780  0.2047E+01  0.1728E+02
  9.790  0.2021E+01  0.1730E+02
  9.800  0.1993E+01  0.1732E+02
  9.810  0.1964E+01  0.1734E+02
  9.820  0.1936E+01  0.1736E+02
  9.830  0.1910E+01  0.1738E+02
  9.840  0.1887E+01  0.1740E+02
  9.850  0.1868E+01  0.1741E+02
  9.860  0.1854E+01  0.1743E+02
  9.870  0.1847E+01  0.1745E+02
  9.880  0.1847E+01  0.1747E+02
  9.890  0.1854E+01  0.1749E+02
  9.900  0.1870E+01  0.1751E+02
  9.910  0.1893E+01  0.1753E+02
  9.920  0.1923E+01  0.1754E+02
  9.930  0.1957E+01  0.1756E+02
  9.940  0.1996E+01  0.1758E+02
  9.950  0.2035E+01  0.1760E+02
  9.960  0.2073E+01  0.1763E+02
  9.970  0.2106E+01  0.1765E+02
  9.980  0.2133E+01  0.1767E+02
  9.990  0.2150E+01  0.1769E+02
 10.000  0.2155E+01  0.1771E+02
